TITLE,
DATA TYPE,RAMAN SPECTRUM
ORIGIN,JASCO
OWNER,
DATE,20/02/28
TIME,14:32:07
SPECTROMETER/DATA SYSTEM,
LOCALE,1033
RESOLUTION,
DELTAX,0.5
XUNITS,1/CM
YUNITS,INTENSITY
FIRSTX,   -0.3733
LASTX, 3631.1267
NPOINTS,    7264
FIRSTY,  1356.09998
MAXY,  7013.07910
MINY,  1355.00085
XYDATA
-0.3733,1356.1
0.1267,1356.27
0.6267,1356.43
1.1267,1356.59
1.6267,1356.75
2.1267,1356.9
2.6267,1357.03
3.1267,1357.16
3.6267,1357.27
4.1267,1357.35
4.6267,1357.4
5.1267,1357.41
5.6267,1357.38
6.1267,1357.29
6.6267,1357.16
7.1267,1356.98
7.6267,1356.75
8.1267,1356.47
8.6267,1356.15
9.1267,1355.81
9.6267,1355.49
10.1267,1355.22
10.6267,1355.05
11.1267,1355
11.6267,1355.1
12.1267,1355.32
12.6267,1355.6
13.1267,1355.9
13.6267,1356.16
14.1267,1356.34
14.6267,1356.42
15.1267,1356.44
15.6267,1356.43
16.1267,1356.45
16.6267,1356.53
17.1267,1356.72
17.6267,1357
18.1267,1357.32
18.6267,1357.65
19.1267,1357.92
19.6267,1358.08
20.1267,1358.11
20.6267,1358.01
21.1267,1357.85
21.6267,1357.68
22.1267,1357.54
22.6267,1357.5
23.1267,1357.59
23.6267,1357.78
24.1267,1358.04
24.6267,1358.33
25.1267,1358.63
25.6267,1358.89
26.1267,1359.09
26.6267,1359.24
27.1267,1359.32
27.6267,1359.35
28.1267,1359.33
28.6267,1359.24
29.1267,1359.11
29.6267,1358.96
30.1267,1358.83
30.6267,1358.73
31.1267,1358.7
31.6267,1358.75
32.1267,1358.88
32.6267,1359.06
33.1267,1359.27
33.6267,1359.51
34.1267,1359.74
34.6267,1359.95
35.1267,1360.14
35.6267,1360.29
36.1267,1360.41
36.6267,1360.48
37.1267,1360.5
37.6267,1360.47
38.1267,1360.4
38.6267,1360.3
39.1267,1360.18
39.6267,1360.04
40.1267,1359.9
40.6267,1359.77
41.1267,1359.68
41.6267,1359.66
42.1267,1359.73
42.6267,1359.9
43.1267,1360.2
43.6267,1360.6
44.1267,1361.03
44.6267,1361.47
45.1267,1361.87
45.6267,1362.18
46.1267,1362.39
46.6267,1362.51
47.1267,1362.58
47.6267,1362.62
48.1267,1362.67
48.6267,1362.75
49.1267,1362.86
49.6267,1362.99
50.1267,1363.12
50.6267,1363.22
51.1267,1363.29
51.6267,1363.31
52.1267,1363.3
52.6267,1363.27
53.1267,1363.24
53.6267,1363.25
54.1267,1363.31
54.6267,1363.44
55.1267,1363.61
55.6267,1363.8
56.1267,1363.99
56.6267,1364.14
57.1267,1364.23
57.6267,1364.27
58.1267,1364.28
58.6267,1364.29
59.1267,1364.34
59.6267,1364.46
60.1267,1364.66
60.6267,1364.93
61.1267,1365.21
61.6267,1365.45
62.1267,1365.6
62.6267,1365.6
63.1267,1365.42
63.6267,1365.14
64.1267,1364.81
64.6267,1364.54
65.1267,1364.39
65.6267,1364.45
66.1267,1364.72
66.6267,1365.15
67.1267,1365.63
67.6267,1366.08
68.1267,1366.42
68.6267,1366.56
69.1267,1366.51
69.6267,1366.33
70.1267,1366.08
70.6267,1365.82
71.1267,1365.61
71.6267,1365.51
72.1267,1365.53
72.6267,1365.66
73.1267,1365.91
73.6267,1366.26
74.1267,1366.71
74.6267,1367.26
75.1267,1367.84
75.6267,1368.43
76.1267,1368.98
76.6267,1369.43
77.1267,1369.75
77.6267,1369.94
78.1267,1370.04
78.6267,1370.09
79.1267,1370.12
79.6267,1370.18
80.1267,1370.31
80.6267,1370.48
81.1267,1370.68
81.6267,1370.87
82.1267,1371.02
82.6267,1371.11
83.1267,1371.11
83.6267,1371.05
84.1267,1370.95
84.6267,1370.84
85.1267,1370.74
85.6267,1370.68
86.1267,1370.66
86.6267,1370.68
87.1267,1370.7
87.6267,1370.71
88.1267,1370.71
88.6267,1370.66
89.1267,1370.6
89.6267,1370.55
90.1267,1370.55
90.6267,1370.63
91.1267,1370.82
91.6267,1371.15
92.1267,1371.59
92.6267,1372.11
93.1267,1372.68
93.6267,1373.26
94.1267,1373.82
94.6267,1374.33
95.1267,1374.77
95.6267,1375.13
96.1267,1375.37
96.6267,1375.49
97.1267,1375.47
97.6267,1375.34
98.1267,1375.18
98.6267,1375.06
99.1267,1375.04
99.6267,1375.21
100.1267,1375.59
100.6267,1376.11
101.1267,1376.65
101.6267,1377.11
102.1267,1377.38
102.6267,1377.35
103.1267,1377
103.6267,1376.47
104.1267,1375.88
104.6267,1375.39
105.1267,1375.12
105.6267,1375.2
106.1267,1375.6
106.6267,1376.21
107.1267,1376.89
107.6267,1377.53
108.1267,1378
108.6267,1378.2
109.1267,1378.17
109.6267,1377.97
110.1267,1377.64
110.6267,1377.26
111.1267,1376.88
111.6267,1376.55
112.1267,1376.31
112.6267,1376.2
113.1267,1376.24
113.6267,1376.47
114.1267,1376.92
114.6267,1377.55
115.1267,1378.29
115.6267,1379.05
116.1267,1379.74
116.6267,1380.29
117.1267,1380.63
117.6267,1380.8
118.1267,1380.84
118.6267,1380.8
119.1267,1380.73
119.6267,1380.69
120.1267,1380.7
120.6267,1380.74
121.1267,1380.77
121.6267,1380.78
122.1267,1380.73
122.6267,1380.61
123.1267,1380.46
123.6267,1380.33
124.1267,1380.31
124.6267,1380.47
125.1267,1380.89
125.6267,1381.6
126.1267,1382.54
126.6267,1383.59
127.1267,1384.63
127.6267,1385.58
128.1267,1386.3
128.6267,1386.76
129.1267,1387.04
129.6267,1387.19
130.1267,1387.29
130.6267,1387.43
131.1267,1387.67
131.6267,1388.01
132.1267,1388.43
132.6267,1388.87
133.1267,1389.31
133.6267,1389.7
134.1267,1390.02
134.6267,1390.32
135.1267,1390.63
135.6267,1391.03
136.1267,1391.55
136.6267,1392.26
137.1267,1393.16
137.6267,1394.19
138.1267,1395.27
138.6267,1396.34
139.1267,1397.32
139.6267,1398.16
140.1267,1398.89
140.6267,1399.63
141.1267,1400.48
141.6267,1401.55
142.1267,1402.95
142.6267,1404.74
143.1267,1406.87
143.6267,1409.24
144.1267,1411.75
144.6267,1414.32
145.1267,1416.85
145.6267,1419.34
146.1267,1421.9
146.6267,1424.65
147.1267,1427.73
147.6267,1431.25
148.1267,1435.34
148.6267,1440.07
149.1267,1445.52
149.6267,1451.74
150.1267,1458.81
150.6267,1466.78
151.1267,1475.72
151.6267,1485.68
152.1267,1496.7
152.6267,1508.84
153.1267,1522.15
153.6267,1536.67
154.1267,1552.59
154.6267,1570.22
155.1267,1589.89
155.6267,1611.92
156.1267,1636.66
156.6267,1664.37
157.1267,1695.09
157.6267,1728.66
158.1267,1764.97
158.6267,1803.89
159.1267,1845.3
159.6267,1889.18
160.1267,1935.87
160.6267,1985.74
161.1267,2039.16
161.6267,2096.52
162.1267,2158.16
162.6267,2223.93
163.1267,2293.18
163.6267,2365.24
164.1267,2439.45
164.6267,2515.13
165.1267,2591.66
165.6267,2668.67
166.1267,2745.91
166.6267,2823.12
167.1267,2900.03
167.6267,2976.37
168.1267,3051.82
168.6267,3125.86
169.1267,3197.97
169.6267,3267.63
170.1267,3334.31
170.6267,3397.5
171.1267,3456.82
171.6267,3512.04
172.1267,3562.91
172.6267,3609.18
173.1267,3650.61
173.6267,3687.06
174.1267,3718.89
174.6267,3746.62
175.1267,3770.74
175.6267,3791.75
176.1267,3810.17
176.6267,3826.42
177.1267,3840.8
177.6267,3853.61
178.1267,3865.15
178.6267,3875.71
179.1267,3885.57
179.6267,3894.79
180.1267,3903.29
180.6267,3910.99
181.1267,3917.82
181.6267,3923.71
182.1267,3928.64
182.6267,3932.79
183.1267,3936.38
183.6267,3939.62
184.1267,3942.75
184.6267,3945.97
185.1267,3949.38
185.6267,3952.93
186.1267,3956.57
186.6267,3960.23
187.1267,3963.87
187.6267,3967.43
188.1267,3970.81
188.6267,3973.88
189.1267,3976.54
189.6267,3978.67
190.1267,3980.14
190.6267,3980.97
191.1267,3981.4
191.6267,3981.71
192.1267,3982.19
192.6267,3983.11
193.1267,3984.76
193.6267,3987.13
194.1267,3990.05
194.6267,3993.31
195.1267,3996.72
195.6267,4000.09
196.1267,4003.2
196.6267,4005.85
197.1267,4007.82
197.6267,4008.86
198.1267,4008.78
198.6267,4007.33
199.1267,4004.62
199.6267,4001.19
200.1267,3997.63
200.6267,3994.5
201.1267,3992.41
201.6267,3991.86
202.1267,3992.82
202.6267,3994.91
203.1267,3997.78
203.6267,4001.06
204.1267,4004.4
204.6267,4007.46
205.1267,4010
205.6267,4011.8
206.1267,4012.64
206.6267,4012.28
207.1267,4010.52
207.6267,4007.56
208.1267,4003.95
208.6267,4000.3
209.1267,3997.19
209.6267,3995.21
210.1267,3994.83
210.6267,3995.82
211.1267,3997.76
211.6267,4000.18
212.1267,4002.66
212.6267,4004.75
213.1267,4006.19
213.6267,4007.06
214.1267,4007.47
214.6267,4007.51
215.1267,4007.3
215.6267,4006.94
216.1267,4006.57
216.6267,4006.36
217.1267,4006.48
217.6267,4007.08
218.1267,4008.33
218.6267,4010.29
219.1267,4012.65
219.6267,4015.02
220.1267,4017.02
220.6267,4018.27
221.1267,4018.41
221.6267,4017.5
222.1267,4015.99
222.6267,4014.4
223.1267,4013.22
223.6267,4012.95
224.1267,4013.99
224.6267,4016.26
225.1267,4019.46
225.6267,4023.33
226.1267,4027.58
226.6267,4031.93
227.1267,4036.14
227.6267,4039.98
228.1267,4043.27
228.6267,4045.79
229.1267,4047.35
229.6267,4047.76
230.1267,4047.24
230.6267,4046.21
231.1267,4045.1
231.6267,4044.33
232.1267,4044.35
232.6267,4045.42
233.1267,4047.38
233.6267,4049.98
234.1267,4052.96
234.6267,4056.07
235.1267,4059.07
235.6267,4061.84
236.1267,4064.39
236.6267,4066.76
237.1267,4068.96
237.6267,4071.02
238.1267,4072.97
238.6267,4074.86
239.1267,4076.77
239.6267,4078.76
240.1267,4080.91
240.6267,4083.29
241.1267,4085.85
241.6267,4088.4
242.1267,4090.72
242.6267,4092.6
243.1267,4093.81
243.6267,4094.18
244.1267,4093.65
244.6267,4092.3
245.1267,4090.17
245.6267,4087.34
246.1267,4083.85
246.6267,4079.81
247.1267,4075.46
247.6267,4071.05
248.1267,4066.83
248.6267,4063.05
249.1267,4059.95
249.6267,4057.6
250.1267,4055.92
250.6267,4054.83
251.1267,4054.25
251.6267,4054.1
252.1267,4054.27
252.6267,4054.62
253.1267,4054.96
253.6267,4055.13
254.1267,4054.95
254.6267,4054.25
255.1267,4053
255.6267,4051.35
256.1267,4049.47
256.6267,4047.5
257.1267,4045.61
257.6267,4043.97
258.1267,4042.78
258.6267,4042.28
259.1267,4042.69
259.6267,4044.24
260.1267,4047.16
260.6267,4051.36
261.1267,4056.15
261.6267,4060.76
262.1267,4064.42
262.6267,4066.36
263.1267,4065.92
263.6267,4063.44
264.1267,4059.94
264.6267,4056.43
265.1267,4053.94
265.6267,4053.47
266.1267,4055.63
266.6267,4059.67
267.1267,4064.66
267.6267,4069.63
268.1267,4073.63
268.6267,4075.74
269.1267,4075.85
269.6267,4074.64
270.1267,4072.77
270.6267,4070.94
271.1267,4069.82
271.6267,4069.96
272.1267,4071.28
272.6267,4073.49
273.1267,4076.35
273.6267,4079.58
274.1267,4082.91
274.6267,4086.13
275.1267,4089.12
275.6267,4091.73
276.1267,4093.84
276.6267,4095.32
277.1267,4096.09
277.6267,4096.43
278.1267,4096.78
278.6267,4097.58
279.1267,4099.25
279.6267,4102.24
280.1267,4106.64
280.6267,4111.94
281.1267,4117.57
281.6267,4122.94
282.1267,4127.49
282.6267,4130.69
283.1267,4132.55
283.6267,4133.43
284.1267,4133.67
284.6267,4133.61
285.1267,4133.62
285.6267,4133.88
286.1267,4134.21
286.6267,4134.36
287.1267,4134.09
287.6267,4133.15
288.1267,4131.3
288.6267,4128.65
289.1267,4125.53
289.6267,4122.31
290.1267,4119.33
290.6267,4116.94
291.1267,4115.45
291.6267,4114.86
292.1267,4115.16
292.6267,4116.3
293.1267,4118.25
293.6267,4120.98
294.1267,4124.23
294.6267,4127.54
295.1267,4130.41
295.6267,4132.37
296.1267,4132.93
296.6267,4131.77
297.1267,4129.39
297.6267,4126.55
298.1267,4124.01
298.6267,4122.54
299.1267,4122.88
299.6267,4125.15
300.1267,4128.61
300.6267,4132.43
301.1267,4135.81
301.6267,4137.92
302.1267,4138.09
302.6267,4136.66
303.1267,4134.39
303.6267,4132.04
304.1267,4130.36
304.6267,4130.12
305.1267,4131.6
305.6267,4134.27
306.1267,4137.49
306.6267,4140.63
307.1267,4143.05
307.6267,4144.19
308.1267,4144.15
308.6267,4143.4
309.1267,4142.41
309.6267,4141.64
310.1267,4141.56
310.6267,4142.4
311.1267,4143.85
311.6267,4145.49
312.1267,4146.92
312.6267,4147.73
313.1267,4147.57
313.6267,4146.54
314.1267,4145.06
314.6267,4143.6
315.1267,4142.57
315.6267,4142.44
316.1267,4143.44
316.6267,4145.24
317.1267,4147.4
317.6267,4149.5
318.1267,4151.08
318.6267,4151.74
319.1267,4151.4
319.6267,4150.31
320.1267,4148.71
320.6267,4146.84
321.1267,4144.95
321.6267,4143.25
322.1267,4141.85
322.6267,4140.82
323.1267,4140.24
323.6267,4140.2
324.1267,4140.75
324.6267,4141.91
325.1267,4143.59
325.6267,4145.68
326.1267,4148.11
326.6267,4150.79
327.1267,4153.61
327.6267,4156.46
328.1267,4159.22
328.6267,4161.75
329.1267,4163.95
329.6267,4165.68
330.1267,4166.89
330.6267,4167.64
331.1267,4167.99
331.6267,4167.97
332.1267,4167.65
332.6267,4167.08
333.1267,4166.31
333.6267,4165.42
334.1267,4164.46
334.6267,4163.49
335.1267,4162.57
335.6267,4161.78
336.1267,4161.19
336.6267,4160.89
337.1267,4160.96
337.6267,4161.48
338.1267,4162.49
338.6267,4163.86
339.1267,4165.35
339.6267,4166.73
340.1267,4167.79
340.6267,4168.29
341.1267,4168.19
341.6267,4167.72
342.1267,4167.14
342.6267,4166.73
343.1267,4166.73
343.6267,4167.36
344.1267,4168.47
344.6267,4169.74
345.1267,4170.86
345.6267,4171.5
346.1267,4171.37
346.6267,4170.36
347.1267,4168.85
347.6267,4167.21
348.1267,4165.84
348.6267,4165.13
349.1267,4165.41
349.6267,4166.43
350.1267,4167.68
350.6267,4168.64
351.1267,4168.77
351.6267,4167.55
352.1267,4164.89
352.6267,4161.47
353.1267,4158.08
353.6267,4155.52
354.1267,4154.57
354.6267,4155.93
355.1267,4159.21
355.6267,4163.48
356.1267,4167.79
356.6267,4171.19
357.1267,4172.73
357.6267,4172.04
358.1267,4169.9
358.6267,4167.28
359.1267,4165.13
359.6267,4164.4
360.1267,4165.94
360.6267,4169.42
361.1267,4173.84
361.6267,4178.18
362.1267,4181.45
362.6267,4182.62
363.1267,4181.21
363.6267,4177.93
364.1267,4173.64
364.6267,4169.2
365.1267,4165.48
365.6267,4163.27
366.1267,4162.53
366.6267,4162.75
367.1267,4163.4
367.6267,4163.92
368.1267,4163.81
368.6267,4162.77
369.1267,4161.13
369.6267,4159.31
370.1267,4157.7
370.6267,4156.72
371.1267,4156.74
371.6267,4157.85
372.1267,4159.89
372.6267,4162.75
373.1267,4166.27
373.6267,4170.34
374.1267,4174.74
374.6267,4179.13
375.1267,4183.11
375.6267,4186.31
376.1267,4188.35
376.6267,4188.89
377.1267,4188.13
377.6267,4186.59
378.1267,4184.81
378.6267,4183.33
379.1267,4182.67
379.6267,4183.15
380.1267,4184.55
380.6267,4186.57
381.1267,4188.91
381.6267,4191.28
382.1267,4193.4
382.6267,4195.34
383.1267,4197.34
383.6267,4199.67
384.1267,4202.59
384.6267,4206.36
385.1267,4211.22
385.6267,4217.37
386.1267,4224.98
386.6267,4234.24
387.1267,4245.34
387.6267,4258.4
388.1267,4273.11
388.6267,4288.83
389.1267,4304.95
389.6267,4320.83
390.1267,4335.85
390.6267,4349.61
391.1267,4362.19
391.6267,4373.75
392.1267,4384.43
392.6267,4394.39
393.1267,4403.73
393.6267,4412.07
394.1267,4418.71
394.6267,4422.99
395.1267,4424.21
395.6267,4421.7
396.1267,4415.03
396.6267,4404.35
397.1267,4389.85
397.6267,4371.74
398.1267,4350.23
398.6267,4325.64
399.1267,4299.4
399.6267,4273.55
400.1267,4250.11
400.6267,4231.13
401.1267,4218.62
401.6267,4213.31
402.1267,4213.4
402.6267,4216.76
403.1267,4221.3
403.6267,4224.91
404.1267,4225.72
404.6267,4223.88
405.1267,4220.52
405.6267,4216.81
406.1267,4213.88
406.6267,4212.87
407.1267,4214.25
407.6267,4217.2
408.1267,4220.82
408.6267,4224.19
409.1267,4226.39
409.6267,4226.63
410.1267,4225.2
410.6267,4222.81
411.1267,4220.19
411.6267,4218.07
412.1267,4217.18
412.6267,4217.75
413.1267,4219.2
413.6267,4220.92
414.1267,4222.29
414.6267,4222.67
415.1267,4221.57
415.6267,4219.35
416.1267,4216.69
416.6267,4214.26
417.1267,4212.76
417.6267,4212.86
418.1267,4214.68
418.6267,4217.6
419.1267,4220.94
419.6267,4224.02
420.1267,4226.17
420.6267,4226.87
421.1267,4226.49
421.6267,4225.71
422.1267,4225.19
422.6267,4225.6
423.1267,4227.59
423.6267,4231.13
424.1267,4235.42
424.6267,4239.6
425.1267,4242.81
425.6267,4244.2
426.1267,4243.17
426.6267,4240.35
427.1267,4236.68
427.6267,4233.13
428.1267,4230.65
428.6267,4230.14
429.1267,4231.66
429.6267,4234.33
430.1267,4237.27
430.6267,4239.59
431.1267,4240.39
431.6267,4239.12
432.1267,4236.4
432.6267,4233.17
433.1267,4230.34
433.6267,4228.82
434.1267,4229.48
434.6267,4232.22
435.1267,4236.16
435.6267,4240.4
436.1267,4244.02
436.6267,4246.13
437.1267,4246.13
437.6267,4244.44
438.1267,4241.62
438.6267,4238.24
439.1267,4234.88
439.6267,4232.07
440.1267,4230.08
440.6267,4228.95
441.1267,4228.73
441.6267,4229.46
442.1267,4231.21
442.6267,4233.86
443.1267,4236.97
443.6267,4240.06
444.1267,4242.63
444.6267,4244.21
445.1267,4244.36
445.6267,4243.26
446.1267,4241.38
446.6267,4239.23
447.1267,4237.29
447.6267,4236.05
448.1267,4235.79
448.6267,4236.4
449.1267,4237.75
449.6267,4239.68
450.1267,4242.05
450.6267,4244.72
451.1267,4247.52
451.6267,4250.25
452.1267,4252.74
452.6267,4254.81
453.1267,4256.26
453.6267,4257.04
454.1267,4257.25
454.6267,4256.98
455.1267,4256.36
455.6267,4255.47
456.1267,4254.46
456.6267,4253.52
457.1267,4252.88
457.6267,4252.76
458.1267,4253.39
458.6267,4254.99
459.1267,4257.37
459.6267,4259.92
460.1267,4262.02
460.6267,4263.04
461.1267,4262.35
461.6267,4259.61
462.1267,4255.51
462.6267,4250.98
463.1267,4246.95
463.6267,4244.34
464.1267,4244.03
464.6267,4245.9
465.1267,4249.09
465.6267,4252.71
466.1267,4255.85
466.6267,4257.64
467.1267,4257.54
467.6267,4256
468.1267,4253.61
468.6267,4250.96
469.1267,4248.64
469.6267,4247.2
470.1267,4246.73
470.6267,4247.05
471.1267,4247.99
471.6267,4249.34
472.1267,4250.94
472.6267,4252.67
473.1267,4254.57
473.6267,4256.69
474.1267,4259.08
474.6267,4261.8
475.1267,4264.85
475.6267,4268.08
476.1267,4271.22
476.6267,4274.03
477.1267,4276.25
477.6267,4277.63
478.1267,4278.08
478.6267,4277.75
479.1267,4276.79
479.6267,4275.35
480.1267,4273.58
480.6267,4271.61
481.1267,4269.52
481.6267,4267.33
482.1267,4265.1
482.6267,4262.85
483.1267,4260.64
483.6267,4258.52
484.1267,4256.58
484.6267,4254.9
485.1267,4253.56
485.6267,4252.63
486.1267,4252.18
486.6267,4252.16
487.1267,4252.53
487.6267,4253.24
488.1267,4254.22
488.6267,4255.43
489.1267,4256.82
489.6267,4258.35
490.1267,4259.94
490.6267,4261.57
491.1267,4263.19
491.6267,4264.78
492.1267,4266.47
492.6267,4268.36
493.1267,4270.58
493.6267,4273.25
494.1267,4276.44
494.6267,4279.88
495.1267,4283.14
495.6267,4285.83
496.1267,4287.53
496.6267,4287.83
497.1267,4286.67
497.6267,4284.48
498.1267,4281.68
498.6267,4278.73
499.1267,4276.06
499.6267,4274.04
500.1267,4272.66
500.6267,4271.82
501.1267,4271.41
501.6267,4271.35
502.1267,4271.52
502.6267,4271.92
503.1267,4272.6
503.6267,4273.61
504.1267,4275.02
504.6267,4276.88
505.1267,4279.16
505.6267,4281.59
506.1267,4283.86
506.6267,4285.67
507.1267,4286.69
507.6267,4286.68
508.1267,4285.82
508.6267,4284.57
509.1267,4283.36
509.6267,4282.66
510.1267,4282.9
510.6267,4284.24
511.1267,4286.33
511.6267,4288.77
512.1267,4291.17
512.6267,4293.13
513.1267,4294.37
513.6267,4295.18
514.1267,4296.08
514.6267,4297.57
515.1267,4300.16
515.6267,4304.33
516.1267,4310.07
516.6267,4316.82
517.1267,4324
517.6267,4331.02
518.1267,4337.32
518.6267,4342.44
519.1267,4346.42
519.6267,4349.37
520.1267,4351.4
520.6267,4352.64
521.1267,4353.19
521.6267,4353.03
522.1267,4352.08
522.6267,4350.23
523.1267,4347.39
523.6267,4343.48
524.1267,4338.57
524.6267,4333.08
525.1267,4327.47
525.6267,4322.18
526.1267,4317.66
526.6267,4314.31
527.1267,4312.08
527.6267,4310.78
528.1267,4310.21
528.6267,4310.17
529.1267,4310.46
529.6267,4310.86
530.1267,4311.11
530.6267,4310.97
531.1267,4310.18
531.6267,4308.49
532.1267,4305.8
532.6267,4302.55
533.1267,4299.31
533.6267,4296.63
534.1267,4295.08
534.6267,4295.14
535.1267,4296.68
535.6267,4299.11
536.1267,4301.83
536.6267,4304.25
537.1267,4305.77
537.6267,4306.07
538.1267,4305.29
538.6267,4303.66
539.1267,4301.39
539.6267,4298.7
540.1267,4295.78
540.6267,4292.78
541.1267,4289.8
541.6267,4286.96
542.1267,4284.35
542.6267,4282.1
543.1267,4280.4
543.6267,4279.54
544.1267,4279.83
544.6267,4281.56
545.1267,4285.03
545.6267,4290.28
546.1267,4296.51
546.6267,4302.77
547.1267,4308.07
547.6267,4311.48
548.1267,4312.12
548.6267,4310.34
549.1267,4307.19
549.6267,4303.74
550.1267,4301.05
550.6267,4300.19
551.1267,4301.54
551.6267,4304.27
552.1267,4307.48
552.6267,4310.26
553.1267,4311.67
553.6267,4311.01
554.1267,4308.62
554.6267,4305.19
555.1267,4301.42
555.6267,4298
556.1267,4295.6
556.6267,4294.41
557.1267,4294.22
557.6267,4294.76
558.1267,4295.8
558.6267,4297.09
559.1267,4298.41
559.6267,4299.68
560.1267,4300.82
560.6267,4301.75
561.1267,4302.4
561.6267,4302.7
562.1267,4302.72
562.6267,4302.59
563.1267,4302.42
563.6267,4302.35
564.1267,4302.49
564.6267,4302.85
565.1267,4303.29
565.6267,4303.65
566.1267,4303.77
566.6267,4303.5
567.1267,4302.74
567.6267,4301.68
568.1267,4300.56
568.6267,4299.62
569.1267,4299.13
569.6267,4299.28
570.1267,4299.99
570.6267,4300.91
571.1267,4301.69
571.6267,4302
572.1267,4301.47
572.6267,4300.02
573.1267,4298
573.6267,4295.81
574.1267,4293.87
574.6267,4292.59
575.1267,4292.3
575.6267,4292.9
576.1267,4294.14
576.6267,4295.75
577.1267,4297.48
577.6267,4299.08
578.1267,4300.35
578.6267,4301.19
579.1267,4301.46
579.6267,4301.07
580.1267,4299.88
580.6267,4297.93
581.1267,4295.55
581.6267,4293.16
582.1267,4291.18
582.6267,4290.01
583.1267,4290
583.6267,4290.96
584.1267,4292.42
584.6267,4293.93
585.1267,4295.03
585.6267,4295.27
586.1267,4294.63
586.6267,4293.62
587.1267,4292.79
587.6267,4292.69
588.1267,4293.88
588.6267,4296.67
589.1267,4300.54
589.6267,4304.81
590.1267,4308.79
590.6267,4311.77
591.1267,4313.12
591.6267,4312.83
592.1267,4311.26
592.6267,4308.8
593.1267,4305.83
593.6267,4302.72
594.1267,4299.82
594.6267,4297.42
595.1267,4295.83
595.6267,4295.34
596.1267,4296.23
596.6267,4298.64
597.1267,4301.95
597.6267,4305.34
598.1267,4307.97
598.6267,4309.01
599.1267,4307.71
599.6267,4304.33
600.1267,4299.92
600.6267,4295.55
601.1267,4292.28
601.6267,4291.19
602.1267,4292.7
602.6267,4296.04
603.1267,4300.27
603.6267,4304.45
604.1267,4307.65
604.6267,4309.11
605.1267,4308.95
605.6267,4307.61
606.1267,4305.53
606.6267,4303.17
607.1267,4300.94
607.6267,4299.14
608.1267,4297.92
608.6267,4297.43
609.1267,4297.83
609.6267,4299.25
610.1267,4301.68
610.6267,4304.64
611.1267,4307.61
611.6267,4310.07
612.1267,4311.5
612.6267,4311.48
613.1267,4310.27
613.6267,4308.35
614.1267,4306.26
614.6267,4304.5
615.1267,4303.57
615.6267,4303.62
616.1267,4304.42
616.6267,4305.77
617.1267,4307.42
617.6267,4309.15
618.1267,4310.78
618.6267,4312.26
619.1267,4313.56
619.6267,4314.64
620.1267,4315.47
620.6267,4316.03
621.1267,4316.36
621.6267,4316.54
622.1267,4316.63
622.6267,4316.73
623.1267,4316.89
623.6267,4317.15
624.1267,4317.51
624.6267,4317.98
625.1267,4318.54
625.6267,4319.18
626.1267,4319.88
626.6267,4320.46
627.1267,4320.74
627.6267,4320.54
628.1267,4319.69
628.6267,4318.05
629.1267,4315.88
629.6267,4313.63
630.1267,4311.75
630.6267,4310.68
631.1267,4310.85
631.6267,4312.22
632.1267,4314.15
632.6267,4316
633.1267,4317.13
633.6267,4316.88
634.1267,4314.93
634.6267,4311.83
635.1267,4308.33
635.6267,4305.16
636.1267,4303.05
636.6267,4302.64
637.1267,4303.77
637.6267,4305.93
638.1267,4308.6
638.6267,4311.24
639.1267,4313.34
639.6267,4314.66
640.1267,4315.27
640.6267,4315.25
641.1267,4314.69
641.6267,4313.66
642.1267,4312.3
642.6267,4310.86
643.1267,4309.6
643.6267,4308.79
644.1267,4308.7
644.6267,4309.54
645.1267,4311.05
645.6267,4312.77
646.1267,4314.21
646.6267,4314.9
647.1267,4314.39
647.6267,4312.69
648.1267,4310.3
648.6267,4307.76
649.1267,4305.62
649.6267,4304.41
650.1267,4304.45
650.6267,4305.47
651.1267,4307.09
651.6267,4308.93
652.1267,4310.63
652.6267,4311.84
653.1267,4312.53
653.6267,4312.77
654.1267,4312.63
654.6267,4312.2
655.1267,4311.56
655.6267,4310.77
656.1267,4309.87
656.6267,4308.92
657.1267,4307.97
657.6267,4307.05
658.1267,4306.21
658.6267,4305.49
659.1267,4304.9
659.6267,4304.47
660.1267,4304.22
660.6267,4304.17
661.1267,4304.27
661.6267,4304.45
662.1267,4304.62
662.6267,4304.71
663.1267,4304.65
663.6267,4304.51
664.1267,4304.47
664.6267,4304.72
665.1267,4305.46
665.6267,4306.88
666.1267,4308.95
666.6267,4311.19
667.1267,4313.07
667.6267,4314.06
668.1267,4313.63
668.6267,4311.4
669.1267,4307.84
669.6267,4303.68
670.1267,4299.67
670.6267,4296.54
671.1267,4294.99
671.6267,4295.01
672.1267,4296.02
672.6267,4297.45
673.1267,4298.72
673.6267,4299.25
674.1267,4298.83
674.6267,4297.91
675.1267,4296.99
675.6267,4296.58
676.1267,4297.17
676.6267,4299.08
677.1267,4301.74
677.6267,4304.36
678.1267,4306.15
678.6267,4306.33
679.1267,4304.19
679.6267,4300.14
680.1267,4295.27
680.6267,4290.68
681.1267,4287.5
681.6267,4286.79
682.1267,4288.81
682.6267,4292.6
683.1267,4297.11
683.6267,4301.3
684.1267,4304.12
684.6267,4304.88
685.1267,4304.02
685.6267,4302.23
686.1267,4300.18
686.6267,4298.55
687.1267,4297.94
687.6267,4298.21
688.1267,4298.86
688.6267,4299.38
689.1267,4299.28
689.6267,4298.08
690.1267,4295.78
690.6267,4292.97
691.1267,4290.25
691.6267,4288.22
692.1267,4287.49
692.6267,4288.34
693.1267,4290.24
693.6267,4292.58
694.1267,4294.72
694.6267,4296.02
695.1267,4295.99
695.6267,4294.83
696.1267,4293.01
696.6267,4291.01
697.1267,4289.31
697.6267,4288.36
698.1267,4288.13
698.6267,4288.21
699.1267,4288.19
699.6267,4287.65
700.1267,4286.16
700.6267,4283.64
701.1267,4280.51
701.6267,4277.3
702.1267,4274.5
702.6267,4272.61
703.1267,4272
703.6267,4272.39
704.1267,4273.38
704.6267,4274.53
705.1267,4275.44
705.6267,4275.72
706.1267,4275.46
706.6267,4275
707.1267,4274.67
707.6267,4274.84
708.1267,4275.83
708.6267,4277.67
709.1267,4280.01
709.6267,4282.45
710.1267,4284.63
710.6267,4286.14
711.1267,4286.78
711.6267,4286.71
712.1267,4286.2
712.6267,4285.5
713.1267,4284.87
713.6267,4284.54
714.1267,4284.45
714.6267,4284.46
715.1267,4284.42
715.6267,4284.2
716.1267,4283.64
716.6267,4282.74
717.1267,4281.59
717.6267,4280.29
718.1267,4278.95
718.6267,4277.65
719.1267,4276.49
719.6267,4275.59
720.1267,4275.02
720.6267,4274.89
721.1267,4275.3
721.6267,4276.29
722.1267,4277.67
722.6267,4279.22
723.1267,4280.7
723.6267,4281.86
724.1267,4282.51
724.6267,4282.66
725.1267,4282.47
725.6267,4282.09
726.1267,4281.68
726.6267,4281.4
727.1267,4281.3
727.6267,4281.34
728.1267,4281.48
728.6267,4281.66
729.1267,4281.83
729.6267,4281.94
730.1267,4281.94
730.6267,4281.78
731.1267,4281.41
731.6267,4280.78
732.1267,4279.87
732.6267,4278.92
733.1267,4278.21
733.6267,4278.06
734.1267,4278.76
734.6267,4280.58
735.1267,4283.27
735.6267,4286.22
736.1267,4288.82
736.6267,4290.45
737.1267,4290.51
737.6267,4288.91
738.1267,4286.37
738.6267,4283.63
739.1267,4281.46
739.6267,4280.6
740.1267,4281.49
740.6267,4283.61
741.1267,4286.23
741.6267,4288.63
742.1267,4290.09
742.6267,4290.07
743.1267,4289.18
743.6267,4288.51
744.1267,4289.15
744.6267,4292.21
745.1267,4298.72
745.6267,4308.52
746.1267,4320.48
746.6267,4333.41
747.1267,4346.13
747.6267,4357.48
748.1267,4367.32
748.6267,4377.28
749.1267,4389.15
749.6267,4404.73
750.1267,4425.81
750.6267,4453.22
751.1267,4484.37
751.6267,4515.89
752.1267,4544.42
752.6267,4566.58
753.1267,4579.32
753.6267,4582.04
754.1267,4575.3
754.6267,4559.68
755.1267,4535.76
755.6267,4504.16
756.1267,4466.95
756.6267,4427.49
757.1267,4389.21
757.6267,4355.53
758.1267,4329.88
758.6267,4313.82
759.1267,4305.48
759.6267,4302.63
760.1267,4303.02
760.6267,4304.41
761.1267,4304.97
761.6267,4304.42
762.1267,4302.86
762.6267,4300.38
763.1267,4297.11
763.6267,4293.15
764.1267,4288.86
764.6267,4284.7
765.1267,4281.13
765.6267,4278.61
766.1267,4277.59
766.6267,4278
767.1267,4279.3
767.6267,4280.93
768.1267,4282.34
768.6267,4282.95
769.1267,4282.52
769.6267,4281.33
770.1267,4279.75
770.6267,4278.15
771.1267,4276.89
771.6267,4276.26
772.1267,4276.23
772.6267,4276.72
773.1267,4277.63
773.6267,4278.87
774.1267,4280.33
774.6267,4281.76
775.1267,4282.84
775.6267,4283.24
776.1267,4282.64
776.6267,4280.74
777.1267,4277.69
777.6267,4274.1
778.1267,4270.61
778.6267,4267.82
779.1267,4266.36
779.6267,4266.48
780.1267,4267.71
780.6267,4269.54
781.1267,4271.46
781.6267,4272.94
782.1267,4273.6
782.6267,4273.59
783.1267,4273.15
783.6267,4272.53
784.1267,4271.98
784.6267,4271.72
785.1267,4271.7
785.6267,4271.73
786.1267,4271.63
786.6267,4271.22
787.1267,4270.35
787.6267,4269.09
788.1267,4267.8
788.6267,4266.8
789.1267,4266.42
789.6267,4267.01
790.1267,4268.53
790.6267,4270.37
791.1267,4271.89
791.6267,4272.42
792.1267,4271.32
792.6267,4268.29
793.1267,4264.18
793.6267,4260.02
794.1267,4256.89
794.6267,4255.82
795.1267,4257.63
795.6267,4261.57
796.1267,4266.32
796.6267,4270.53
797.1267,4272.88
797.6267,4272.13
798.1267,4268.56
798.6267,4263.53
799.1267,4258.42
799.6267,4254.6
800.1267,4253.43
800.6267,4255.22
801.1267,4258.85
801.6267,4263.13
802.1267,4266.86
802.6267,4268.86
803.1267,4268.47
803.6267,4266.34
804.1267,4263.34
804.6267,4260.33
805.1267,4258.18
805.6267,4257.55
806.1267,4258.14
806.6267,4259.37
807.1267,4260.67
807.6267,4261.45
808.1267,4261.2
808.6267,4259.98
809.1267,4258.2
809.6267,4256.28
810.1267,4254.61
810.6267,4253.61
811.1267,4253.49
811.6267,4254.27
812.1267,4255.97
812.6267,4258.59
813.1267,4262.16
813.6267,4266.46
814.1267,4270.87
814.6267,4274.73
815.1267,4277.39
815.6267,4278.19
816.1267,4276.74
816.6267,4273.71
817.1267,4269.94
817.6267,4266.28
818.1267,4263.59
818.6267,4262.58
819.1267,4262.95
819.6267,4264
820.1267,4265.03
820.6267,4265.33
821.1267,4264.25
821.6267,4261.98
822.1267,4259.26
822.6267,4256.9
823.1267,4255.67
823.6267,4256.34
824.1267,4258.93
824.6267,4262.53
825.1267,4266.17
825.6267,4268.87
826.1267,4269.66
826.6267,4268.09
827.1267,4264.94
827.6267,4261.14
828.1267,4257.62
828.6267,4255.33
829.1267,4254.96
829.6267,4256.18
830.1267,4258.39
830.6267,4260.98
831.1267,4263.35
831.6267,4264.95
832.1267,4265.74
832.6267,4265.91
833.1267,4265.65
833.6267,4265.15
834.1267,4264.59
834.6267,4264.08
835.1267,4263.61
835.6267,4263.19
836.1267,4262.81
836.6267,4262.49
837.1267,4262.24
837.6267,4262.12
838.1267,4262.17
838.6267,4262.44
839.1267,4263
839.6267,4263.84
840.1267,4264.82
840.6267,4265.78
841.1267,4266.55
841.6267,4266.99
842.1267,4266.99
842.6267,4266.81
843.1267,4266.77
843.6267,4267.22
844.1267,4268.5
844.6267,4270.88
845.1267,4274.01
845.6267,4277.23
846.1267,4279.87
846.6267,4281.26
847.1267,4280.77
847.6267,4278.45
848.1267,4274.95
848.6267,4270.92
849.1267,4267.04
849.6267,4263.96
850.1267,4262.03
850.6267,4261.1
851.1267,4260.97
851.6267,4261.45
852.1267,4262.36
852.6267,4263.5
853.1267,4264.67
853.6267,4265.68
854.1267,4266.33
854.6267,4266.41
855.1267,4265.8
855.6267,4264.65
856.1267,4263.24
856.6267,4261.81
857.1267,4260.62
857.6267,4259.92
858.1267,4259.86
858.6267,4260.58
859.1267,4262.2
859.6267,4264.83
860.1267,4268.57
860.6267,4272.98
861.1267,4277.19
861.6267,4280.31
862.1267,4281.46
862.6267,4279.78
863.1267,4275.3
863.6267,4269.32
864.1267,4263.23
864.6267,4258.42
865.1267,4256.25
865.6267,4257.45
866.1267,4261.16
866.6267,4266.33
867.1267,4271.9
867.6267,4276.82
868.1267,4280.25
868.6267,4282.13
869.1267,4282.63
869.6267,4281.91
870.1267,4280.12
870.6267,4277.46
871.1267,4274.27
871.6267,4270.98
872.1267,4268.02
872.6267,4265.83
873.1267,4264.78
873.6267,4264.9
874.1267,4265.9
874.6267,4267.5
875.1267,4269.42
875.6267,4271.38
876.1267,4273.2
876.6267,4274.76
877.1267,4275.98
877.6267,4276.76
878.1267,4277.01
878.6267,4276.72
879.1267,4276.05
879.6267,4275.2
880.1267,4274.34
880.6267,4273.65
881.1267,4273.27
881.6267,4273.22
882.1267,4273.5
882.6267,4274.1
883.1267,4275.01
883.6267,4276.21
884.1267,4277.54
884.6267,4278.8
885.1267,4279.8
885.6267,4280.35
886.1267,4280.29
886.6267,4279.69
887.1267,4278.78
887.6267,4277.78
888.1267,4276.89
888.6267,4276.33
889.1267,4276.14
889.6267,4276.23
890.1267,4276.48
890.6267,4276.81
891.1267,4277.11
891.6267,4277.31
892.1267,4277.4
892.6267,4277.36
893.1267,4277.16
893.6267,4276.8
894.1267,4276.32
894.6267,4275.88
895.1267,4275.67
895.6267,4275.87
896.1267,4276.67
896.6267,4278.13
897.1267,4279.98
897.6267,4281.86
898.1267,4283.41
898.6267,4284.26
899.1267,4284.16
899.6267,4283.27
900.1267,4281.97
900.6267,4280.6
901.1267,4279.5
901.6267,4279.02
902.1267,4279.19
902.6267,4279.95
903.1267,4281.2
903.6267,4282.87
904.1267,4284.84
904.6267,4286.84
905.1267,4288.42
905.6267,4289.13
906.1267,4288.5
906.6267,4286.11
907.1267,4282.11
907.6267,4277.44
908.1267,4273.06
908.6267,4269.98
909.1267,4269.16
909.6267,4270.98
910.1267,4274.6
910.6267,4279.05
911.1267,4283.34
911.6267,4286.49
912.1267,4287.84
912.6267,4287.75
913.1267,4286.77
913.6267,4285.46
914.1267,4284.36
914.6267,4283.91
915.1267,4283.91
915.6267,4283.95
916.1267,4283.65
916.6267,4282.6
917.1267,4280.48
917.6267,4277.7
918.1267,4275
918.6267,4273.13
919.1267,4272.83
919.6267,4274.78
920.1267,4278.64
920.6267,4283.32
921.1267,4287.7
921.6267,4290.67
922.1267,4291.16
922.6267,4289.06
923.1267,4285.4
923.6267,4281.23
924.1267,4277.61
924.6267,4275.61
925.1267,4275.63
925.6267,4277
926.1267,4278.94
926.6267,4280.67
927.1267,4281.42
927.6267,4280.75
928.1267,4279.03
928.6267,4276.75
929.1267,4274.4
929.6267,4272.48
930.1267,4271.38
930.6267,4271.05
931.1267,4271.33
931.6267,4272.08
932.1267,4273.14
932.6267,4274.38
933.1267,4275.73
933.6267,4277.14
934.1267,4278.58
934.6267,4280.01
935.1267,4281.38
935.6267,4282.65
936.1267,4283.78
936.6267,4284.71
937.1267,4285.39
937.6267,4285.8
938.1267,4285.99
938.6267,4286.11
939.1267,4286.32
939.6267,4286.78
940.1267,4287.62
940.6267,4288.76
941.1267,4289.8
941.6267,4290.35
942.1267,4290
942.6267,4288.36
943.1267,4285.42
943.6267,4281.89
944.1267,4278.53
944.6267,4276.08
945.1267,4275.32
945.6267,4276.65
946.1267,4279.58
946.6267,4283.51
947.1267,4287.82
947.6267,4291.88
948.1267,4295.22
948.6267,4297.82
949.1267,4299.79
949.6267,4301.22
950.1267,4302.21
950.6267,4302.89
951.1267,4303.48
951.6267,4304.23
952.1267,4305.42
952.6267,4307.3
953.1267,4310.07
953.6267,4313.41
954.1267,4316.74
954.6267,4319.45
955.1267,4320.96
955.6267,4320.74
956.1267,4318.98
956.6267,4316.43
957.1267,4313.83
957.6267,4311.95
958.1267,4311.49
958.6267,4312.57
959.1267,4314.63
959.6267,4317.09
960.1267,4319.39
960.6267,4320.95
961.1267,4321.53
961.6267,4321.38
962.1267,4320.77
962.6267,4319.97
963.1267,4319.25
963.6267,4318.78
964.1267,4318.48
964.6267,4318.25
965.1267,4317.97
965.6267,4317.54
966.1267,4316.94
966.6267,4316.37
967.1267,4316.08
967.6267,4316.3
968.1267,4317.28
968.6267,4319.17
969.1267,4321.69
969.6267,4324.47
970.1267,4327.12
970.6267,4329.27
971.1267,4330.61
971.6267,4331.28
972.1267,4331.55
972.6267,4331.71
973.1267,4332.05
973.6267,4332.82
974.1267,4333.93
974.6267,4335.12
975.1267,4336.12
975.6267,4336.67
976.1267,4336.52
976.6267,4335.76
977.1267,4334.75
977.6267,4333.81
978.1267,4333.3
978.6267,4333.52
979.1267,4334.43
979.6267,4335.57
980.1267,4336.48
980.6267,4336.7
981.1267,4335.77
981.6267,4333.71
982.1267,4331.11
982.6267,4328.65
983.1267,4326.96
983.6267,4326.71
984.1267,4328.13
984.6267,4330.78
985.1267,4334.11
985.6267,4337.58
986.1267,4340.67
986.6267,4342.97
987.1267,4344.43
987.6267,4345.04
988.1267,4344.81
988.6267,4343.72
989.1267,4341.86
989.6267,4339.64
990.1267,4337.54
990.6267,4336.03
991.1267,4335.58
991.6267,4336.54
992.1267,4338.52
992.6267,4340.97
993.1267,4343.33
993.6267,4345.03
994.1267,4345.61
994.6267,4345.37
995.1267,4344.85
995.6267,4344.64
996.1267,4345.3
996.6267,4347.32
997.1267,4350.36
997.6267,4353.65
998.1267,4356.43
998.6267,4357.93
999.1267,4357.44
999.6267,4355.3
1000.1267,4352.55
1000.6267,4350.27
1001.1267,4349.52
1001.6267,4351.32
1002.1267,4355.92
1002.6267,4362.81
1003.1267,4371.47
1003.6267,4381.36
1004.1267,4391.96
1004.6267,4402.96
1005.1267,4414.3
1005.6267,4425.94
1006.1267,4437.84
1006.6267,4449.96
1007.1267,4461.73
1007.6267,4471.8
1008.1267,4478.75
1008.6267,4481.16
1009.1267,4477.6
1009.6267,4467.67
1010.1267,4453.1
1010.6267,4435.86
1011.1267,4417.92
1011.6267,4401.27
1012.1267,4387.37
1012.6267,4376.37
1013.1267,4368.14
1013.6267,4362.6
1014.1267,4359.64
1014.6267,4359.05
1015.1267,4360.28
1015.6267,4362.69
1016.1267,4365.62
1016.6267,4368.45
1017.1267,4370.62
1017.6267,4371.98
1018.1267,4372.5
1018.6267,4372.17
1019.1267,4370.96
1019.6267,4368.88
1020.1267,4366.24
1020.6267,4363.45
1021.1267,4360.9
1021.6267,4359.01
1022.1267,4358.14
1022.6267,4358.28
1023.1267,4359.25
1023.6267,4360.84
1024.1267,4362.87
1024.6267,4365.15
1025.1267,4367.47
1025.6267,4369.66
1026.1267,4371.51
1026.6267,4372.84
1027.1267,4373.48
1027.6267,4373.39
1028.1267,4372.71
1028.6267,4371.56
1029.1267,4370.05
1029.6267,4368.31
1030.1267,4366.56
1030.6267,4365.05
1031.1267,4364.07
1031.6267,4363.91
1032.1267,4364.83
1032.6267,4366.72
1033.1267,4369.02
1033.6267,4371.13
1034.1267,4372.45
1034.6267,4372.4
1035.1267,4370.85
1035.6267,4368.42
1036.1267,4365.8
1036.6267,4363.67
1037.1267,4362.7
1037.6267,4363.26
1038.1267,4365.08
1038.6267,4367.86
1039.1267,4371.25
1039.6267,4374.95
1040.1267,4378.66
1040.6267,4382.19
1041.1267,4385.35
1041.6267,4387.96
1042.1267,4389.85
1042.6267,4390.94
1043.1267,4391.53
1043.6267,4391.97
1044.1267,4392.62
1044.6267,4393.83
1045.1267,4395.85
1045.6267,4398.46
1046.1267,4401.33
1046.6267,4404.14
1047.1267,4406.59
1047.6267,4408.37
1048.1267,4409.41
1048.6267,4409.66
1049.1267,4409.08
1049.6267,4407.64
1050.1267,4405.36
1050.6267,4402.53
1051.1267,4399.56
1051.6267,4396.87
1052.1267,4394.88
1052.6267,4393.91
1053.1267,4393.83
1053.6267,4394.24
1054.1267,4394.76
1054.6267,4395.02
1055.1267,4394.69
1055.6267,4393.91
1056.1267,4393.06
1056.6267,4392.56
1057.1267,4392.79
1057.6267,4394.11
1058.1267,4396.44
1058.6267,4399.39
1059.1267,4402.57
1059.6267,4405.61
1060.1267,4408.13
1060.6267,4409.97
1061.1267,4411.18
1061.6267,4411.77
1062.1267,4411.79
1062.6267,4411.25
1063.1267,4410.35
1063.6267,4409.37
1064.1267,4408.62
1064.6267,4408.4
1065.1267,4409
1065.6267,4410.47
1066.1267,4412.59
1066.6267,4415.12
1067.1267,4417.82
1067.6267,4420.46
1068.1267,4422.86
1068.6267,4424.92
1069.1267,4426.54
1069.6267,4427.63
1070.1267,4428.08
1070.6267,4427.95
1071.1267,4427.44
1071.6267,4426.8
1072.1267,4426.28
1072.6267,4426.1
1073.1267,4426.36
1073.6267,4426.92
1074.1267,4427.59
1074.6267,4428.19
1075.1267,4428.55
1075.6267,4428.61
1076.1267,4428.52
1076.6267,4428.51
1077.1267,4428.75
1077.6267,4429.47
1078.1267,4430.72
1078.6267,4432.29
1079.1267,4433.9
1079.6267,4435.29
1080.1267,4436.17
1080.6267,4436.46
1081.1267,4436.47
1081.6267,4436.62
1082.1267,4437.31
1082.6267,4438.96
1083.1267,4441.77
1083.6267,4445.3
1084.1267,4448.99
1084.6267,4452.25
1085.1267,4454.53
1085.6267,4455.45
1086.1267,4455.38
1086.6267,4454.87
1087.1267,4454.45
1087.6267,4454.68
1088.1267,4455.95
1088.6267,4458.06
1089.1267,4460.61
1089.6267,4463.24
1090.1267,4465.55
1090.6267,4467.23
1091.1267,4468.27
1091.6267,4468.75
1092.1267,4468.76
1092.6267,4468.37
1093.1267,4467.7
1093.6267,4467
1094.1267,4466.55
1094.6267,4466.67
1095.1267,4467.64
1095.6267,4469.69
1096.1267,4472.57
1096.6267,4475.83
1097.1267,4479.04
1097.6267,4481.74
1098.1267,4483.55
1098.6267,4484.47
1099.1267,4484.71
1099.6267,4484.47
1100.1267,4483.95
1100.6267,4483.35
1101.1267,4482.83
1101.6267,4482.56
1102.1267,4482.69
1102.6267,4483.38
1103.1267,4484.75
1103.6267,4486.67
1104.1267,4488.86
1104.6267,4491.03
1105.1267,4492.9
1105.6267,4494.21
1106.1267,4495.02
1106.6267,4495.6
1107.1267,4496.21
1107.6267,4497.14
1108.1267,4498.61
1108.6267,4500.64
1109.1267,4503
1109.6267,4505.52
1110.1267,4507.98
1110.6267,4510.19
1111.1267,4512
1111.6267,4513.3
1112.1267,4513.99
1112.6267,4513.96
1113.1267,4513.12
1113.6267,4511.59
1114.1267,4509.67
1114.6267,4507.68
1115.1267,4505.94
1115.6267,4504.74
1116.1267,4504.18
1116.6267,4504.15
1117.1267,4504.55
1117.6267,4505.26
1118.1267,4506.19
1118.6267,4507.28
1119.1267,4508.56
1119.6267,4510.08
1120.1267,4511.86
1120.6267,4513.92
1121.1267,4516.21
1121.6267,4518.57
1122.1267,4520.84
1122.6267,4522.85
1123.1267,4524.46
1123.6267,4525.67
1124.1267,4526.68
1124.6267,4527.7
1125.1267,4528.92
1125.6267,4530.55
1126.1267,4532.61
1126.6267,4534.89
1127.1267,4537.16
1127.6267,4539.19
1128.1267,4540.76
1128.6267,4541.75
1129.1267,4542.14
1129.6267,4541.95
1130.1267,4541.18
1130.6267,4539.83
1131.1267,4538.09
1131.6267,4536.44
1132.1267,4535.34
1132.6267,4535.27
1133.1267,4536.71
1133.6267,4539.7
1134.1267,4543.67
1134.6267,4548.04
1135.1267,4552.18
1135.6267,4555.49
1136.1267,4557.65
1136.6267,4558.8
1137.1267,4559.09
1137.6267,4558.69
1138.1267,4557.76
1138.6267,4556.59
1139.1267,4555.7
1139.6267,4555.6
1140.1267,4556.8
1140.6267,4559.84
1141.1267,4564.66
1141.6267,4570.3
1142.1267,4575.71
1142.6267,4579.83
1143.1267,4581.62
1143.6267,4580.74
1144.1267,4578.15
1144.6267,4574.93
1145.1267,4572.14
1145.6267,4570.86
1146.1267,4571.58
1146.6267,4573.79
1147.1267,4576.85
1147.6267,4580.12
1148.1267,4582.98
1148.6267,4585.09
1149.1267,4586.72
1149.6267,4588.16
1150.1267,4589.74
1150.6267,4591.77
1151.1267,4594.38
1151.6267,4597.4
1152.1267,4600.6
1152.6267,4603.77
1153.1267,4606.67
1153.6267,4609.12
1154.1267,4610.92
1154.6267,4611.91
1155.1267,4611.89
1155.6267,4610.7
1156.1267,4608.47
1156.6267,4605.89
1157.1267,4603.78
1157.6267,4602.92
1158.1267,4604.09
1158.6267,4607.93
1159.1267,4614.7
1159.6267,4624.63
1160.1267,4637.94
1160.6267,4654.88
1161.1267,4675.18
1161.6267,4697.57
1162.1267,4720.67
1162.6267,4743.08
1163.1267,4763.43
1163.6267,4780.28
1164.1267,4792.16
1164.6267,4797.57
1165.1267,4795.01
1165.6267,4783.02
1166.1267,4761.78
1166.6267,4735.01
1167.1267,4706.87
1167.6267,4681.5
1168.1267,4663.06
1168.6267,4653.68
1169.1267,4651.4
1169.6267,4653.72
1170.1267,4658.13
1170.6267,4662.15
1171.1267,4664.18
1171.6267,4664.45
1172.1267,4663.43
1172.6267,4661.59
1173.1267,4659.38
1173.6267,4657.17
1174.1267,4655.07
1174.6267,4653.19
1175.1267,4651.62
1175.6267,4650.47
1176.1267,4649.78
1176.6267,4649.51
1177.1267,4649.6
1177.6267,4650.01
1178.1267,4650.69
1178.6267,4651.62
1179.1267,4652.96
1179.6267,4654.83
1180.1267,4657.37
1180.6267,4660.73
1181.1267,4665.25
1181.6267,4671.62
1182.1267,4680.59
1182.6267,4692.91
1183.1267,4709.33
1183.6267,4730.23
1184.1267,4755.3
1184.6267,4784.18
1185.1267,4816.49
1185.6267,4851.84
1186.1267,4888.09
1186.6267,4919.94
1187.1267,4941.77
1187.6267,4947.91
1188.1267,4932.81
1188.6267,4895.87
1189.1267,4845.32
1189.6267,4790.27
1190.1267,4739.84
1190.6267,4703.07
1191.1267,4684.03
1191.6267,4678.34
1192.1267,4680.81
1192.6267,4686.25
1193.1267,4689.5
1193.6267,4687.98
1194.1267,4683.21
1194.6267,4677.12
1195.1267,4671.6
1195.6267,4668.57
1196.1267,4668.81
1196.6267,4671.46
1197.1267,4675.48
1197.6267,4679.86
1198.1267,4683.58
1198.6267,4686.1
1199.1267,4687.57
1199.6267,4688.18
1200.1267,4688.15
1200.6267,4687.68
1201.1267,4686.94
1201.6267,4686.03
1202.1267,4685.07
1202.6267,4684.17
1203.1267,4683.44
1203.6267,4683.06
1204.1267,4683.31
1204.6267,4684.46
1205.1267,4686.8
1205.6267,4690.59
1206.1267,4695.73
1206.6267,4701.67
1207.1267,4707.81
1207.6267,4713.58
1208.1267,4718.4
1208.6267,4721.95
1209.1267,4724.24
1209.6267,4725.28
1210.1267,4725.09
1210.6267,4723.69
1211.1267,4721.33
1211.6267,4718.46
1212.1267,4715.56
1212.6267,4713.11
1213.1267,4711.56
1213.6267,4710.95
1214.1267,4710.92
1214.6267,4711.09
1215.1267,4711.08
1215.6267,4710.52
1216.1267,4709.6
1216.6267,4708.97
1217.1267,4709.32
1217.6267,4711.33
1218.1267,4715.62
1218.6267,4721.85
1219.1267,4728.85
1219.6267,4735.43
1220.1267,4740.41
1220.6267,4742.68
1221.1267,4742.37
1221.6267,4740.56
1222.1267,4738.37
1222.6267,4736.92
1223.1267,4737.25
1223.6267,4739.35
1224.1267,4742.46
1224.6267,4745.8
1225.1267,4748.61
1225.6267,4750.18
1226.1267,4750.51
1226.6267,4750.05
1227.1267,4749.25
1227.6267,4748.6
1228.1267,4748.52
1228.6267,4749.29
1229.1267,4751.04
1229.6267,4753.93
1230.1267,4758.1
1230.6267,4763.63
1231.1267,4769.86
1231.6267,4775.76
1232.1267,4780.3
1232.6267,4782.45
1233.1267,4781.38
1233.6267,4777.84
1234.1267,4773.32
1234.6267,4769.32
1235.1267,4767.33
1235.6267,4768.59
1236.1267,4772.6
1236.6267,4778.12
1237.1267,4783.9
1237.6267,4788.71
1238.1267,4791.55
1238.6267,4792.82
1239.1267,4793.41
1239.6267,4794.25
1240.1267,4796.25
1240.6267,4800.08
1241.1267,4805.21
1241.6267,4810.75
1242.1267,4815.79
1242.6267,4819.4
1243.1267,4820.94
1243.6267,4820.8
1244.1267,4819.69
1244.6267,4818.32
1245.1267,4817.4
1245.6267,4817.51
1246.1267,4818.8
1246.6267,4821.3
1247.1267,4825.04
1247.6267,4830.04
1248.1267,4836.16
1248.6267,4842.63
1249.1267,4848.59
1249.6267,4853.14
1250.1267,4855.41
1250.6267,4855.03
1251.1267,4853.05
1251.6267,4850.8
1252.1267,4849.62
1252.6267,4850.82
1253.1267,4855.15
1253.6267,4861.96
1254.1267,4870.39
1254.6267,4879.57
1255.1267,4888.64
1255.6267,4897.47
1256.1267,4907.54
1256.6267,4920.5
1257.1267,4938.01
1257.6267,4961.73
1258.1267,4991.36
1258.6267,5023.16
1259.1267,5053.02
1259.6267,5076.82
1260.1267,5090.49
1260.6267,5092.3
1261.1267,5084.24
1261.6267,5068.6
1262.1267,5047.66
1262.6267,5023.7
1263.1267,4998.65
1263.6267,4973.98
1264.1267,4951.11
1264.6267,4931.47
1265.1267,4916.47
1265.6267,4906.45
1266.1267,4900.6
1266.6267,4898.03
1267.1267,4897.87
1267.6267,4899.24
1268.1267,4901.42
1268.6267,4903.79
1269.1267,4905.78
1269.6267,4906.8
1270.1267,4906.31
1270.6267,4904.57
1271.1267,4902.48
1271.6267,4901
1272.1267,4901.04
1272.6267,4903.45
1273.1267,4907.87
1273.6267,4913.15
1274.1267,4918.11
1274.6267,4921.55
1275.1267,4922.43
1275.6267,4920.95
1276.1267,4918.03
1276.6267,4914.6
1277.1267,4911.61
1277.6267,4909.89
1278.1267,4909.45
1278.6267,4909.95
1279.1267,4911.03
1279.6267,4912.31
1280.1267,4913.48
1280.6267,4914.45
1281.1267,4915.23
1281.6267,4915.84
1282.1267,4916.27
1282.6267,4916.54
1283.1267,4916.6
1283.6267,4916.42
1284.1267,4915.93
1284.6267,4915.11
1285.1267,4914.01
1285.6267,4913.18
1286.1267,4913.28
1286.6267,4914.98
1287.1267,4918.94
1287.6267,4925.35
1288.1267,4932.91
1288.6267,4939.97
1289.1267,4944.91
1289.6267,4946.08
1290.1267,4942.76
1290.6267,4936.64
1291.1267,4929.78
1291.6267,4924.25
1292.1267,4922.13
1292.6267,4924.38
1293.1267,4929.66
1293.6267,4936.32
1294.1267,4942.73
1294.6267,4947.25
1295.1267,4949.16
1295.6267,4949.27
1296.1267,4948.57
1296.6267,4948.02
1297.1267,4948.6
1297.6267,4950.57
1298.1267,4953.23
1298.6267,4955.82
1299.1267,4957.57
1299.6267,4957.75
1300.1267,4956.32
1300.6267,4954.05
1301.1267,4951.75
1301.6267,4950.22
1302.1267,4950.24
1302.6267,4951.81
1303.1267,4954.29
1303.6267,4956.99
1304.1267,4959.22
1304.6267,4960.36
1305.1267,4960.51
1305.6267,4960.29
1306.1267,4960.34
1306.6267,4961.27
1307.1267,4963.65
1307.6267,4967.14
1308.1267,4970.92
1308.6267,4974.14
1309.1267,4975.97
1309.6267,4975.74
1310.1267,4973.91
1310.6267,4971.46
1311.1267,4969.38
1311.6267,4968.65
1312.1267,4970.05
1312.6267,4973.11
1313.1267,4976.96
1313.6267,4980.7
1314.1267,4983.46
1314.6267,4984.57
1315.1267,4984.34
1315.6267,4983.31
1316.1267,4982.03
1316.6267,4981.05
1317.1267,4980.75
1317.6267,4980.92
1318.1267,4981.25
1318.6267,4981.41
1319.1267,4981.1
1319.6267,4980.22
1320.1267,4979.18
1320.6267,4978.51
1321.1267,4978.7
1321.6267,4980.27
1322.1267,4983.35
1322.6267,4987.4
1323.1267,4991.79
1323.6267,4995.9
1324.1267,4999.11
1324.6267,5001.16
1325.1267,5002.33
1325.6267,5002.94
1326.1267,5003.3
1326.6267,5003.72
1327.1267,5004.35
1327.6267,5005.17
1328.1267,5006.16
1328.6267,5007.27
1329.1267,5008.48
1329.6267,5009.61
1330.1267,5010.41
1330.6267,5010.59
1331.1267,5009.89
1331.6267,5008.08
1332.1267,5005.45
1332.6267,5002.65
1333.1267,5000.33
1333.6267,4999.14
1334.1267,4999.66
1334.6267,5001.78
1335.1267,5005.06
1335.6267,5009.05
1336.1267,5013.32
1336.6267,5017.47
1337.1267,5021.45
1337.6267,5025.31
1338.1267,5029.14
1338.6267,5032.98
1339.1267,5036.83
1339.6267,5040.27
1340.1267,5042.81
1340.6267,5043.94
1341.1267,5043.16
1341.6267,5040.33
1342.1267,5036.53
1342.6267,5033.05
1343.1267,5031.2
1343.6267,5032.28
1344.1267,5036.84
1344.6267,5043.67
1345.1267,5051.32
1345.6267,5058.33
1346.1267,5063.26
1346.6267,5065.37
1347.1267,5065.17
1347.6267,5063.3
1348.1267,5060.37
1348.6267,5057.02
1349.1267,5053.74
1349.6267,5050.84
1350.1267,5048.61
1350.6267,5047.36
1351.1267,5047.38
1351.6267,5048.48
1352.1267,5050.07
1352.6267,5051.53
1353.1267,5052.25
1353.6267,5051.66
1354.1267,5050.05
1354.6267,5048.28
1355.1267,5047.21
1355.6267,5047.73
1356.1267,5050.55
1356.6267,5055.15
1357.1267,5060.36
1357.6267,5065
1358.1267,5067.91
1358.6267,5068.16
1359.1267,5066.4
1359.6267,5063.84
1360.1267,5061.7
1360.6267,5061.19
1361.1267,5063.15
1361.6267,5066.86
1362.1267,5071.19
1362.6267,5075.02
1363.1267,5077.23
1363.6267,5077.12
1364.1267,5075.3
1364.6267,5072.59
1365.1267,5069.84
1365.6267,5067.85
1366.1267,5067.16
1366.6267,5067.63
1367.1267,5069.05
1367.6267,5071.21
1368.1267,5073.9
1368.6267,5076.96
1369.1267,5080.26
1369.6267,5083.67
1370.1267,5087.07
1370.6267,5090.35
1371.1267,5093.57
1371.6267,5096.95
1372.1267,5100.75
1372.6267,5105.21
1373.1267,5110.55
1373.6267,5116.67
1374.1267,5123.21
1374.6267,5129.81
1375.1267,5136.12
1375.6267,5141.79
1376.1267,5146.59
1376.6267,5150.35
1377.1267,5152.93
1377.6267,5154.15
1378.1267,5153.92
1378.6267,5152.59
1379.1267,5150.65
1379.6267,5148.62
1380.1267,5147.01
1380.6267,5146.23
1381.1267,5146.42
1381.6267,5147.65
1382.1267,5149.96
1382.6267,5153.4
1383.1267,5157.88
1383.6267,5162.83
1384.1267,5167.6
1384.6267,5171.57
1385.1267,5174.09
1385.6267,5174.9
1386.1267,5174.48
1386.6267,5173.35
1387.1267,5172.04
1387.6267,5171.1
1388.1267,5170.75
1388.6267,5170.87
1389.1267,5171.28
1389.6267,5171.84
1390.1267,5172.4
1390.6267,5173.28
1391.1267,5175.24
1391.6267,5179.03
1392.1267,5185.42
1392.6267,5195.09
1393.1267,5207.92
1393.6267,5223.24
1394.1267,5240.39
1394.6267,5258.69
1395.1267,5277.8
1395.6267,5299.54
1396.1267,5326.66
1396.6267,5361.95
1397.1267,5408.17
1397.6267,5468.77
1398.1267,5550.3
1398.6267,5660.18
1399.1267,5805.84
1399.6267,5994.71
1400.1267,6225.77
1400.6267,6472.7
1401.1267,6704.46
1401.6267,6890.01
1402.1267,6998.42
1402.6267,7013.08
1403.1267,6945.88
1403.6267,6812.1
1404.1267,6626.98
1404.6267,6405.82
1405.1267,6165.43
1405.6267,5924.64
1406.1267,5702.41
1406.6267,5517.72
1407.1267,5388.71
1407.6267,5317.04
1408.1267,5289.36
1408.6267,5291.78
1409.1267,5310.38
1409.6267,5331.99
1410.1267,5351.34
1410.6267,5368.05
1411.1267,5381.84
1411.6267,5392.38
1412.1267,5399.34
1412.6267,5402.07
1413.1267,5399.81
1413.6267,5391.79
1414.1267,5377.26
1414.6267,5356.01
1415.1267,5330.29
1415.6267,5302.92
1416.1267,5276.77
1416.6267,5254.67
1417.1267,5238.39
1417.6267,5226.82
1418.1267,5218.38
1418.6267,5211.49
1419.1267,5204.58
1419.6267,5196.96
1420.1267,5189.46
1420.6267,5183.06
1421.1267,5178.74
1421.6267,5177.43
1422.1267,5179.07
1422.6267,5182.4
1423.1267,5186.12
1423.6267,5188.93
1424.1267,5189.6
1424.6267,5188.1
1425.1267,5185.25
1425.6267,5181.94
1426.1267,5179.03
1426.6267,5177.31
1427.1267,5176.98
1427.6267,5177.96
1428.1267,5180.13
1428.6267,5183.42
1429.1267,5187.66
1429.6267,5192.37
1430.1267,5196.98
1430.6267,5200.91
1431.1267,5203.57
1431.6267,5204.61
1432.1267,5204.32
1432.6267,5203.1
1433.1267,5201.38
1433.6267,5199.55
1434.1267,5197.97
1434.6267,5196.82
1435.1267,5196.3
1435.6267,5196.59
1436.1267,5197.86
1436.6267,5200
1437.1267,5202.53
1437.6267,5204.94
1438.1267,5206.75
1438.6267,5207.47
1439.1267,5207.05
1439.6267,5205.75
1440.1267,5203.86
1440.6267,5201.66
1441.1267,5199.45
1441.6267,5197.72
1442.1267,5197.04
1442.6267,5197.99
1443.1267,5201.15
1443.6267,5206.84
1444.1267,5214.07
1444.6267,5221.45
1445.1267,5227.59
1445.6267,5231.08
1446.1267,5231.12
1446.6267,5228.72
1447.1267,5225.22
1447.6267,5221.96
1448.1267,5220.28
1448.6267,5220.73
1449.1267,5222.43
1449.6267,5224.35
1450.1267,5225.44
1450.6267,5224.69
1451.1267,5221.95
1451.6267,5218.08
1452.1267,5213.99
1452.6267,5210.62
1453.1267,5208.81
1453.6267,5208.67
1454.1267,5209.74
1454.6267,5211.53
1455.1267,5213.59
1455.6267,5215.46
1456.1267,5217.03
1456.6267,5218.32
1457.1267,5219.36
1457.6267,5220.18
1458.1267,5220.82
1458.6267,5221.45
1459.1267,5222.27
1459.6267,5223.5
1460.1267,5225.32
1460.6267,5227.74
1461.1267,5230.24
1461.6267,5232.24
1462.1267,5233.12
1462.6267,5232.31
1463.1267,5229.85
1463.6267,5226.72
1464.1267,5224.01
1464.6267,5222.81
1465.1267,5224.16
1465.6267,5228.06
1466.1267,5233.55
1466.6267,5239.61
1467.1267,5245.24
1467.6267,5249.5
1468.1267,5252.17
1468.6267,5253.46
1469.1267,5253.62
1469.6267,5252.84
1470.1267,5251.38
1470.6267,5249.61
1471.1267,5247.94
1471.6267,5246.77
1472.1267,5246.52
1472.6267,5247.42
1473.1267,5249.12
1473.6267,5251.14
1474.1267,5253
1474.6267,5254.24
1475.1267,5254.85
1475.6267,5255.68
1476.1267,5257.7
1476.6267,5261.85
1477.1267,5269.08
1477.6267,5279.8
1478.1267,5293.8
1478.6267,5310.85
1479.1267,5330.72
1479.6267,5353.04
1480.1267,5375.62
1480.6267,5395.06
1481.1267,5407.92
1481.6267,5410.74
1482.1267,5400.86
1482.6267,5380.66
1483.1267,5354.58
1483.6267,5327.07
1484.1267,5302.59
1484.6267,5284.55
1485.1267,5272.52
1485.6267,5265.21
1486.1267,5261.3
1486.6267,5259.52
1487.1267,5258.8
1487.6267,5258.66
1488.1267,5258.66
1488.6267,5258.37
1489.1267,5257.37
1489.6267,5255.61
1490.1267,5253.55
1490.6267,5251.63
1491.1267,5250.33
1491.6267,5250.1
1492.1267,5251.02
1492.6267,5252.98
1493.1267,5255.81
1493.6267,5259.39
1494.1267,5263.52
1494.6267,5267.69
1495.1267,5271.27
1495.6267,5273.62
1496.1267,5274.09
1496.6267,5272.33
1497.1267,5269.09
1497.6267,5265.36
1498.1267,5262.13
1498.6267,5260.39
1499.1267,5260.56
1499.6267,5261.89
1500.1267,5263.47
1500.6267,5264.4
1501.1267,5263.81
1501.6267,5261.78
1502.1267,5259.53
1502.6267,5258.34
1503.1267,5259.53
1503.6267,5264.23
1504.1267,5271.73
1504.6267,5280.01
1505.1267,5287.04
1505.6267,5290.75
1506.1267,5289.5
1506.6267,5284.11
1507.1267,5276.4
1507.6267,5268.19
1508.1267,5261.31
1508.6267,5257.02
1509.1267,5254.75
1509.6267,5253.51
1510.1267,5252.32
1510.6267,5250.2
1511.1267,5246.78
1511.6267,5242.83
1512.1267,5239.22
1512.6267,5236.85
1513.1267,5236.58
1513.6267,5238.49
1514.1267,5241.84
1514.6267,5245.85
1515.1267,5249.73
1515.6267,5252.75
1516.1267,5254.57
1516.6267,5255.13
1517.1267,5254.36
1517.6267,5252.19
1518.1267,5248.69
1518.6267,5244.56
1519.1267,5240.77
1519.6267,5238.23
1520.1267,5237.91
1520.6267,5240.26
1521.1267,5244.48
1521.6267,5249.5
1522.1267,5254.28
1522.6267,5257.77
1523.1267,5259.39
1523.6267,5259.27
1524.1267,5257.61
1524.6267,5254.62
1525.1267,5250.48
1525.6267,5245.75
1526.1267,5241.2
1526.6267,5237.64
1527.1267,5235.87
1527.6267,5236.56
1528.1267,5239.24
1528.6267,5242.93
1529.1267,5246.61
1529.6267,5249.29
1530.1267,5250.23
1530.6267,5249.71
1531.1267,5248.28
1531.6267,5246.49
1532.1267,5244.89
1532.6267,5243.84
1533.1267,5243.31
1533.6267,5243.2
1534.1267,5243.45
1534.6267,5243.95
1535.1267,5244.68
1535.6267,5245.64
1536.1267,5246.83
1536.6267,5248.27
1537.1267,5249.96
1537.6267,5251.77
1538.1267,5253.51
1538.6267,5254.96
1539.1267,5255.94
1539.6267,5256.29
1540.1267,5256.21
1540.6267,5256.02
1541.1267,5256.01
1541.6267,5256.5
1542.1267,5257.73
1542.6267,5259.75
1543.1267,5262.61
1543.6267,5266.34
1544.1267,5270.97
1544.6267,5276.51
1545.1267,5282.97
1545.6267,5290.35
1546.1267,5298.65
1546.6267,5307.85
1547.1267,5317.82
1547.6267,5328.31
1548.1267,5339.09
1548.6267,5349.92
1549.1267,5360.6
1549.6267,5371.4
1550.1267,5382.74
1550.6267,5395.05
1551.1267,5408.76
1551.6267,5424.21
1552.1267,5441.38
1552.6267,5460.23
1553.1267,5480.68
1553.6267,5502.66
1554.1267,5525.88
1554.6267,5549.63
1555.1267,5573.15
1555.6267,5595.72
1556.1267,5616.57
1556.6267,5634.91
1557.1267,5649.88
1557.6267,5660.63
1558.1267,5666.31
1558.6267,5666.17
1559.1267,5660.41
1559.6267,5649.66
1560.1267,5634.55
1560.6267,5615.72
1561.1267,5593.7
1561.6267,5568.61
1562.1267,5540.47
1562.6267,5509.27
1563.1267,5475.06
1563.6267,5438.64
1564.1267,5402.29
1564.6267,5368.48
1565.1267,5339.67
1565.6267,5318.24
1566.1267,5304.29
1566.6267,5295.71
1567.1267,5290.28
1567.6267,5285.77
1568.1267,5280.21
1568.6267,5273.81
1569.1267,5267.93
1569.6267,5263.93
1570.1267,5263.19
1570.6267,5266.51
1571.1267,5272.44
1571.6267,5278.92
1572.1267,5283.89
1572.6267,5285.31
1573.1267,5282.4
1573.6267,5276.85
1574.1267,5270.69
1574.6267,5265.94
1575.1267,5264.53
1575.6267,5266.61
1576.1267,5270.48
1576.6267,5274.36
1577.1267,5276.46
1577.6267,5275.23
1578.1267,5271.09
1578.6267,5265.53
1579.1267,5260.04
1579.6267,5256.12
1580.1267,5254.89
1580.6267,5255.83
1581.1267,5258.04
1581.6267,5260.6
1582.1267,5262.59
1582.6267,5263.42
1583.1267,5263.15
1583.6267,5261.88
1584.1267,5259.75
1584.6267,5256.89
1585.1267,5253.69
1585.6267,5250.82
1586.1267,5248.97
1586.6267,5248.81
1587.1267,5250.89
1587.6267,5254.71
1588.1267,5259.22
1588.6267,5263.38
1589.1267,5266.12
1589.6267,5266.78
1590.1267,5266.07
1590.6267,5265.05
1591.1267,5264.8
1591.6267,5266.36
1592.1267,5270.05
1592.6267,5274.78
1593.1267,5279.35
1593.6267,5282.53
1594.1267,5283.17
1594.6267,5281.25
1595.1267,5277.78
1595.6267,5273.82
1596.1267,5270.43
1596.6267,5268.53
1597.1267,5268.15
1597.6267,5268.87
1598.1267,5270.29
1598.6267,5272
1599.1267,5273.68
1599.6267,5275.27
1600.1267,5276.81
1600.6267,5278.31
1601.1267,5279.77
1601.6267,5281.12
1602.1267,5282.07
1602.6267,5282.36
1603.1267,5281.71
1603.6267,5279.85
1604.1267,5276.87
1604.6267,5273.15
1605.1267,5269.05
1605.6267,5264.96
1606.1267,5261.22
1606.6267,5258.11
1607.1267,5255.85
1607.6267,5254.67
1608.1267,5254.8
1608.6267,5256.28
1609.1267,5258.66
1609.6267,5261.39
1610.1267,5263.91
1610.6267,5265.69
1611.1267,5266.42
1611.6267,5266.13
1612.1267,5264.85
1612.6267,5262.63
1613.1267,5259.53
1613.6267,5255.93
1614.1267,5252.41
1614.6267,5249.56
1615.1267,5247.94
1615.6267,5248.03
1616.1267,5249.69
1616.6267,5252.63
1617.1267,5256.55
1617.6267,5261.15
1618.1267,5266.15
1618.6267,5271.28
1619.1267,5276.28
1619.6267,5280.9
1620.1267,5284.88
1620.6267,5288.19
1621.1267,5290.98
1621.6267,5293.42
1622.1267,5295.69
1622.6267,5297.97
1623.1267,5300.47
1623.6267,5303.44
1624.1267,5307.13
1624.6267,5311.77
1625.1267,5317.63
1625.6267,5324.96
1626.1267,5334.04
1626.6267,5345.14
1627.1267,5358.52
1627.6267,5373.63
1628.1267,5388.64
1628.6267,5401.66
1629.1267,5410.75
1629.6267,5414.18
1630.1267,5412.64
1630.6267,5408.65
1631.1267,5404.74
1631.6267,5403.48
1632.1267,5406.83
1632.6267,5413.59
1633.1267,5421.5
1633.6267,5428.28
1634.1267,5431.67
1634.6267,5430.18
1635.1267,5424.13
1635.6267,5414.09
1636.1267,5400.63
1636.6267,5384.33
1637.1267,5366.12
1637.6267,5347.29
1638.1267,5329.14
1638.6267,5312.97
1639.1267,5299.94
1639.6267,5289.96
1640.1267,5282.29
1640.6267,5276.21
1641.1267,5270.96
1641.6267,5266
1642.1267,5261.37
1642.6267,5257.25
1643.1267,5253.81
1643.6267,5251.24
1644.1267,5249.55
1644.6267,5248.6
1645.1267,5248.17
1645.6267,5248.08
1646.1267,5248.15
1646.6267,5248.16
1647.1267,5247.93
1647.6267,5247.26
1648.1267,5245.93
1648.6267,5243.84
1649.1267,5241.24
1649.6267,5238.49
1650.1267,5235.97
1650.6267,5234.05
1651.1267,5232.99
1651.6267,5232.8
1652.1267,5233.47
1652.6267,5234.97
1653.1267,5237.28
1653.6267,5240.01
1654.1267,5242.45
1654.6267,5243.86
1655.1267,5243.52
1655.6267,5240.85
1656.1267,5236.43
1656.6267,5231.29
1657.1267,5226.51
1657.6267,5223.13
1658.1267,5221.77
1658.6267,5221.73
1659.1267,5222.11
1659.6267,5221.98
1660.1267,5220.45
1660.6267,5217.45
1661.1267,5213.93
1661.6267,5210.93
1662.1267,5209.48
1662.6267,5210.48
1663.1267,5213.45
1663.6267,5217.16
1664.1267,5220.36
1664.6267,5221.8
1665.1267,5220.65
1665.6267,5217.65
1666.1267,5213.92
1666.6267,5210.58
1667.1267,5208.73
1667.6267,5208.81
1668.1267,5210.13
1668.6267,5211.91
1669.1267,5213.39
1669.6267,5213.83
1670.1267,5213.28
1670.6267,5212.29
1671.1267,5211.46
1671.6267,5211.37
1672.1267,5212.45
1672.6267,5214.45
1673.1267,5216.9
1673.6267,5219.35
1674.1267,5221.31
1674.6267,5222.48
1675.1267,5222.85
1675.6267,5222.43
1676.1267,5221.26
1676.6267,5219.36
1677.1267,5216.84
1677.6267,5213.9
1678.1267,5210.73
1678.6267,5207.52
1679.1267,5204.47
1679.6267,5201.71
1680.1267,5199.37
1680.6267,5197.58
1681.1267,5196.45
1681.6267,5196.01
1682.1267,5196
1682.6267,5196.12
1683.1267,5196.08
1683.6267,5195.59
1684.1267,5194.73
1684.6267,5193.9
1685.1267,5193.54
1685.6267,5194.06
1686.1267,5195.82
1686.6267,5198.51
1687.1267,5201.55
1687.6267,5204.37
1688.1267,5206.39
1688.6267,5207.24
1689.1267,5207.13
1689.6267,5206.39
1690.1267,5205.32
1690.6267,5204.23
1691.1267,5203.17
1691.6267,5201.86
1692.1267,5200.02
1692.6267,5197.37
1693.1267,5193.7
1693.6267,5189.43
1694.1267,5185.31
1694.6267,5182.06
1695.1267,5180.44
1695.6267,5180.87
1696.1267,5182.8
1696.6267,5185.51
1697.1267,5188.25
1697.6267,5190.32
1698.1267,5191.41
1698.6267,5191.73
1699.1267,5191.52
1699.6267,5191.04
1700.1267,5190.51
1700.6267,5189.87
1701.1267,5188.91
1701.6267,5187.44
1702.1267,5185.25
1702.6267,5182.27
1703.1267,5178.97
1703.6267,5175.9
1704.1267,5173.59
1704.6267,5172.6
1705.1267,5173.02
1705.6267,5174.32
1706.1267,5175.95
1706.6267,5177.33
1707.1267,5177.96
1707.6267,5177.83
1708.1267,5177.23
1708.6267,5176.45
1709.1267,5175.78
1709.6267,5175.42
1710.1267,5175.35
1710.6267,5175.44
1711.1267,5175.61
1711.6267,5175.74
1712.1267,5175.82
1712.6267,5175.93
1713.1267,5176.16
1713.6267,5176.61
1714.1267,5177.37
1714.6267,5178.34
1715.1267,5179.37
1715.6267,5180.28
1716.1267,5180.92
1716.6267,5181.08
1717.1267,5180.51
1717.6267,5178.91
1718.1267,5176
1718.6267,5171.5
1719.1267,5165.78
1719.6267,5160.02
1720.1267,5155.49
1720.6267,5153.45
1721.1267,5154.98
1721.6267,5159.41
1722.1267,5165.06
1722.6267,5170.25
1723.1267,5173.28
1723.6267,5172.99
1724.1267,5169.95
1724.6267,5165.08
1725.1267,5159.33
1725.6267,5153.62
1726.1267,5148.64
1726.6267,5144.78
1727.1267,5142.39
1727.6267,5141.8
1728.1267,5143.32
1728.6267,5146.55
1729.1267,5150.77
1729.6267,5155.22
1730.1267,5159.17
1730.6267,5162.08
1731.1267,5164.05
1731.6267,5165.29
1732.1267,5166.02
1732.6267,5166.46
1733.1267,5166.66
1733.6267,5166.45
1734.1267,5165.65
1734.6267,5164.09
1735.1267,5161.64
1735.6267,5158.54
1736.1267,5155.21
1736.6267,5152.08
1737.1267,5149.56
1737.6267,5147.99
1738.1267,5147.43
1738.6267,5147.88
1739.1267,5149.37
1739.6267,5151.88
1740.1267,5155.06
1740.6267,5158.13
1741.1267,5160.29
1741.6267,5160.77
1742.1267,5158.91
1742.6267,5155.23
1743.1267,5150.7
1743.6267,5146.33
1744.1267,5143.1
1744.6267,5141.65
1745.1267,5141.78
1745.6267,5143.14
1746.1267,5145.39
1746.6267,5148.18
1747.1267,5151.26
1747.6267,5154.41
1748.1267,5157.45
1748.6267,5160.17
1749.1267,5162.39
1749.6267,5163.89
1750.1267,5164.47
1750.6267,5163.93
1751.1267,5162.06
1751.6267,5158.9
1752.1267,5155
1752.6267,5150.96
1753.1267,5147.41
1753.6267,5144.91
1754.1267,5143.58
1754.6267,5143.12
1755.1267,5143.21
1755.6267,5143.58
1756.1267,5143.9
1756.6267,5143.92
1757.1267,5143.37
1757.6267,5142
1758.1267,5139.55
1758.6267,5136.17
1759.1267,5132.65
1759.6267,5129.86
1760.1267,5128.68
1760.6267,5129.89
1761.1267,5133.23
1761.6267,5137.77
1762.1267,5142.53
1762.6267,5146.56
1763.1267,5149.11
1763.6267,5150.23
1764.1267,5150.17
1764.6267,5149.18
1765.1267,5147.5
1765.6267,5145.38
1766.1267,5143.12
1766.6267,5140.98
1767.1267,5139.24
1767.6267,5138.15
1768.1267,5137.64
1768.6267,5137.46
1769.1267,5137.38
1769.6267,5137.16
1770.1267,5136.67
1770.6267,5136.03
1771.1267,5135.43
1771.6267,5135.05
1772.1267,5135.07
1772.6267,5135.46
1773.1267,5135.98
1773.6267,5136.39
1774.1267,5136.44
1774.6267,5135.92
1775.1267,5134.87
1775.6267,5133.46
1776.1267,5131.83
1776.6267,5130.13
1777.1267,5128.49
1777.6267,5126.95
1778.1267,5125.53
1778.6267,5124.26
1779.1267,5123.19
1779.6267,5122.27
1780.1267,5121.43
1780.6267,5120.58
1781.1267,5119.64
1781.6267,5118.58
1782.1267,5117.61
1782.6267,5117.02
1783.1267,5117.07
1783.6267,5118.04
1784.1267,5119.94
1784.6267,5122.35
1785.1267,5124.8
1785.6267,5126.85
1786.1267,5128.07
1786.6267,5128.3
1787.1267,5127.55
1787.6267,5125.83
1788.1267,5123.12
1788.6267,5119.59
1789.1267,5115.85
1789.6267,5112.58
1790.1267,5110.49
1790.6267,5110.25
1791.1267,5111.92
1791.6267,5114.89
1792.1267,5118.52
1792.6267,5122.18
1793.1267,5125.25
1793.6267,5127.36
1794.1267,5128.21
1794.6267,5127.5
1795.1267,5124.94
1795.6267,5120.56
1796.1267,5115.01
1796.6267,5109.06
1797.1267,5103.44
1797.6267,5098.86
1798.1267,5095.58
1798.6267,5093.47
1799.1267,5092.42
1799.6267,5092.3
1800.1267,5092.93
1800.6267,5093.95
1801.1267,5094.92
1801.6267,5095.42
1802.1267,5095.02
1802.6267,5093.66
1803.1267,5091.79
1803.6267,5089.85
1804.1267,5088.34
1804.6267,5087.65
1805.1267,5087.68
1805.6267,5088.05
1806.1267,5088.4
1806.6267,5088.35
1807.1267,5087.69
1807.6267,5086.5
1808.1267,5084.96
1808.6267,5083.22
1809.1267,5081.44
1809.6267,5079.8
1810.1267,5078.49
1810.6267,5077.68
1811.1267,5077.58
1811.6267,5078.29
1812.1267,5079.57
1812.6267,5081.08
1813.1267,5082.49
1813.6267,5083.44
1814.1267,5083.8
1814.6267,5083.7
1815.1267,5083.32
1815.6267,5082.83
1816.1267,5082.4
1816.6267,5082.03
1817.1267,5081.66
1817.6267,5081.21
1818.1267,5080.62
1818.6267,5079.84
1819.1267,5078.88
1819.6267,5077.77
1820.1267,5076.54
1820.6267,5075.21
1821.1267,5073.84
1821.6267,5072.52
1822.1267,5071.34
1822.6267,5070.37
1823.1267,5069.72
1823.6267,5069.46
1824.1267,5069.7
1824.6267,5070.53
1825.1267,5072.04
1825.6267,5074.08
1826.1267,5076.07
1826.6267,5077.42
1827.1267,5077.5
1827.6267,5075.8
1828.1267,5072.56
1828.6267,5068.52
1829.1267,5064.38
1829.6267,5060.87
1830.1267,5058.51
1830.6267,5057.31
1831.1267,5057.17
1831.6267,5057.99
1832.1267,5059.65
1832.6267,5061.91
1833.1267,5064.33
1833.6267,5066.47
1834.1267,5067.92
1834.6267,5068.31
1835.1267,5067.59
1835.6267,5065.83
1836.1267,5063.08
1836.6267,5059.42
1837.1267,5055.13
1837.6267,5050.82
1838.1267,5047.17
1838.6267,5044.82
1839.1267,5044.35
1839.6267,5045.43
1840.1267,5047.29
1840.6267,5049.13
1841.1267,5050.17
1841.6267,5049.87
1842.1267,5048.37
1842.6267,5045.92
1843.1267,5042.78
1843.6267,5039.19
1844.1267,5035.36
1844.6267,5031.48
1845.1267,5027.71
1845.6267,5024.23
1846.1267,5021.25
1846.6267,5019.08
1847.1267,5018.09
1847.6267,5018.63
1848.1267,5021.03
1848.6267,5025.1
1849.1267,5029.86
1849.6267,5034.28
1850.1267,5037.33
1850.6267,5038.12
1851.1267,5036.86
1851.6267,5034.27
1852.1267,5031.09
1852.6267,5028.02
1853.1267,5025.52
1853.6267,5023.41
1854.1267,5021.42
1854.6267,5019.3
1855.1267,5016.8
1855.6267,5013.92
1856.1267,5010.87
1856.6267,5007.83
1857.1267,5005
1857.6267,5002.58
1858.1267,5000.81
1858.6267,4999.91
1859.1267,5000.13
1859.6267,5001.68
1860.1267,5004.3
1860.6267,5007.16
1861.1267,5009.42
1861.6267,5010.24
1862.1267,5008.95
1862.6267,5005.95
1863.1267,5002.02
1863.6267,4997.94
1864.1267,4994.47
1864.6267,4992.19
1865.1267,4991.31
1865.6267,4991.99
1866.1267,4994.4
1866.6267,4998.63
1867.1267,5003.9
1867.6267,5008.96
1868.1267,5012.55
1868.6267,5013.41
1869.1267,5010.89
1869.6267,5005.97
1870.1267,4999.86
1870.6267,4993.78
1871.1267,4988.9
1871.6267,4985.54
1872.1267,4983.33
1872.6267,4981.88
1873.1267,4980.8
1873.6267,4979.76
1874.1267,4978.66
1874.6267,4977.46
1875.1267,4976.13
1875.6267,4974.63
1876.1267,4972.95
1876.6267,4971.1
1877.1267,4969.12
1877.6267,4967
1878.1267,4964.81
1878.6267,4962.73
1879.1267,4960.99
1879.6267,4959.83
1880.1267,4959.5
1880.6267,4960.05
1881.1267,4961.25
1881.6267,4962.84
1882.1267,4964.54
1882.6267,4966.1
1883.1267,4967.24
1883.6267,4967.68
1884.1267,4967.13
1884.6267,4965.32
1885.1267,4962.26
1885.6267,4958.7
1886.1267,4955.54
1886.6267,4953.62
1887.1267,4953.77
1887.6267,4955.87
1888.1267,4959.06
1888.6267,4962.48
1889.1267,4965.27
1889.6267,4966.75
1890.1267,4966.97
1890.6267,4966.14
1891.1267,4964.46
1891.6267,4962.15
1892.1267,4959.5
1892.6267,4956.92
1893.1267,4954.8
1893.6267,4953.56
1894.1267,4953.47
1894.6267,4954.27
1895.1267,4955.45
1895.6267,4956.56
1896.1267,4957.1
1896.6267,4956.9
1897.1267,4956.18
1897.6267,4955.22
1898.1267,4954.27
1898.6267,4953.57
1899.1267,4953.09
1899.6267,4952.68
1900.1267,4952.21
1900.6267,4951.51
1901.1267,4950.53
1901.6267,4949.39
1902.1267,4948.23
1902.6267,4947.19
1903.1267,4946.37
1903.6267,4945.66
1904.1267,4944.78
1904.6267,4943.45
1905.1267,4941.38
1905.6267,4938.49
1906.1267,4935.17
1906.6267,4931.9
1907.1267,4929.17
1907.6267,4927.45
1908.1267,4926.77
1908.6267,4926.82
1909.1267,4927.31
1909.6267,4927.91
1910.1267,4928.4
1910.6267,4928.81
1911.1267,4929.27
1911.6267,4929.88
1912.1267,4930.75
1912.6267,4931.66
1913.1267,4932.08
1913.6267,4931.43
1914.1267,4929.14
1914.6267,4924.91
1915.1267,4919.63
1915.6267,4914.57
1916.1267,4911
1916.6267,4910.18
1917.1267,4912.31
1917.6267,4916.19
1918.1267,4920.49
1918.6267,4923.91
1919.1267,4925.32
1919.6267,4924.83
1920.1267,4923.03
1920.6267,4920.55
1921.1267,4917.98
1921.6267,4915.78
1922.1267,4914.17
1922.6267,4913.31
1923.1267,4913.41
1923.6267,4914.55
1924.1267,4916.25
1924.6267,4917.67
1925.1267,4917.98
1925.6267,4916.37
1926.1267,4912.61
1926.6267,4907.82
1927.1267,4903.29
1927.6267,4900.32
1928.1267,4900.08
1928.6267,4902.28
1929.1267,4905.72
1929.6267,4909.16
1930.1267,4911.37
1930.6267,4911.63
1931.1267,4910.58
1931.6267,4909.11
1932.1267,4908.08
1932.6267,4908.33
1933.1267,4909.68
1933.6267,4911.19
1934.1267,4911.88
1934.6267,4910.78
1935.1267,4907.31
1935.6267,4902.18
1936.1267,4896.39
1936.6267,4890.92
1937.1267,4886.74
1937.6267,4884.13
1938.1267,4882.77
1938.6267,4882.28
1939.1267,4882.3
1939.6267,4882.55
1940.1267,4883.13
1940.6267,4884.21
1941.1267,4885.98
1941.6267,4888.6
1942.1267,4891.92
1942.6267,4895.38
1943.1267,4898.4
1943.6267,4900.4
1944.1267,4900.94
1944.6267,4900.09
1945.1267,4898.12
1945.6267,4895.31
1946.1267,4891.91
1946.6267,4888.18
1947.1267,4884.38
1947.6267,4880.73
1948.1267,4877.49
1948.6267,4874.88
1949.1267,4872.98
1949.6267,4871.84
1950.1267,4871.48
1950.6267,4871.95
1951.1267,4873.23
1951.6267,4875.23
1952.1267,4877.84
1952.6267,4880.97
1953.1267,4884.44
1953.6267,4887.54
1954.1267,4889.34
1954.6267,4888.9
1955.1267,4885.28
1955.6267,4878.53
1956.1267,4870.39
1956.6267,4862.77
1957.1267,4857.56
1957.6267,4856.42
1958.1267,4858.75
1958.6267,4862.87
1959.1267,4867.09
1959.6267,4869.71
1960.1267,4869.9
1960.6267,4868.54
1961.1267,4866.69
1961.6267,4865.41
1962.1267,4865.63
1962.6267,4867.05
1963.1267,4868.69
1963.6267,4869.54
1964.1267,4868.62
1964.6267,4865.65
1965.1267,4861.92
1965.6267,4858.92
1966.1267,4858.15
1966.6267,4860.89
1967.1267,4866.14
1967.6267,4871.52
1968.1267,4874.6
1968.6267,4872.99
1969.1267,4865.7
1969.6267,4855.25
1970.1267,4844.63
1970.6267,4836.87
1971.1267,4834.7
1971.6267,4837.79
1972.1267,4843.76
1972.6267,4850.18
1973.1267,4854.63
1973.6267,4855.53
1974.1267,4853.57
1974.6267,4849.78
1975.1267,4845.19
1975.6267,4840.78
1976.1267,4836.94
1976.6267,4833.6
1977.1267,4830.67
1977.6267,4828.11
1978.1267,4825.89
1978.6267,4824.26
1979.1267,4823.46
1979.6267,4823.74
1980.1267,4825.33
1980.6267,4827.91
1981.1267,4830.76
1981.6267,4833.15
1982.1267,4834.35
1982.6267,4833.88
1983.1267,4832.08
1983.6267,4829.39
1984.1267,4826.27
1984.6267,4823.18
1985.1267,4820.36
1985.6267,4817.92
1986.1267,4815.97
1986.6267,4814.6
1987.1267,4813.88
1987.6267,4813.69
1988.1267,4813.88
1988.6267,4814.29
1989.1267,4814.8
1989.6267,4815.32
1990.1267,4815.82
1990.6267,4816.26
1991.1267,4816.63
1991.6267,4816.89
1992.1267,4817.05
1992.6267,4817.13
1993.1267,4817.12
1993.6267,4817.05
1994.1267,4816.86
1994.6267,4816.48
1995.1267,4815.82
1995.6267,4814.8
1996.1267,4813.33
1996.6267,4811.26
1997.1267,4808.45
1997.6267,4804.74
1998.1267,4800.03
1998.6267,4794.79
1999.1267,4789.94
1999.6267,4786.43
2000.1267,4785.21
2000.6267,4786.76
2001.1267,4790.09
2001.6267,4793.94
2002.1267,4797.04
2002.6267,4798.18
2003.1267,4797.03
2003.6267,4793.99
2004.1267,4789.46
2004.6267,4783.84
2005.1267,4777.67
2005.6267,4771.93
2006.1267,4767.67
2006.6267,4765.95
2007.1267,4767.71
2007.6267,4772.43
2008.1267,4778.44
2008.6267,4784.03
2009.1267,4787.52
2009.6267,4787.86
2010.1267,4785.93
2010.6267,4782.93
2011.1267,4780.09
2011.6267,4778.55
2012.1267,4778.37
2012.6267,4778.82
2013.1267,4779.17
2013.6267,4778.66
2014.1267,4776.96
2014.6267,4774.8
2015.1267,4773.1
2015.6267,4772.79
2016.1267,4774.69
2016.6267,4778.28
2017.1267,4782.08
2017.6267,4784.63
2018.1267,4784.44
2018.6267,4780.79
2019.1267,4774.93
2019.6267,4768.4
2020.1267,4762.73
2020.6267,4759.35
2021.1267,4758.25
2021.6267,4758.46
2022.1267,4759.04
2022.6267,4759.01
2023.1267,4757.88
2023.6267,4756.3
2024.1267,4755.04
2024.6267,4754.9
2025.1267,4756.56
2025.6267,4759.47
2026.1267,4762.38
2026.6267,4764.02
2027.1267,4763.13
2027.6267,4759.29
2028.1267,4753.85
2028.6267,4748.35
2029.1267,4744.39
2029.6267,4743.34
2030.1267,4744.92
2030.6267,4747.92
2031.1267,4751.16
2031.6267,4753.43
2032.1267,4754.06
2032.6267,4753.35
2033.1267,4751.73
2033.6267,4749.6
2034.1267,4747.35
2034.6267,4745.14
2035.1267,4743.01
2035.6267,4741.01
2036.1267,4739.16
2036.6267,4737.54
2037.1267,4736.21
2037.6267,4735.25
2038.1267,4734.74
2038.6267,4734.72
2039.1267,4735.06
2039.6267,4735.51
2040.1267,4735.85
2040.6267,4735.85
2041.1267,4735.46
2041.6267,4734.89
2042.1267,4734.39
2042.6267,4734.19
2043.1267,4734.46
2043.6267,4734.9
2044.1267,4735.07
2044.6267,4734.53
2045.1267,4732.85
2045.6267,4730.07
2046.1267,4726.85
2046.6267,4723.89
2047.1267,4721.88
2047.6267,4721.31
2048.1267,4721.75
2048.6267,4722.47
2049.1267,4722.77
2049.6267,4721.93
2050.1267,4719.88
2050.6267,4717.21
2051.1267,4714.54
2051.6267,4712.49
2052.1267,4711.53
2052.6267,4711.47
2053.1267,4711.99
2053.6267,4712.76
2054.1267,4713.44
2054.6267,4713.9
2055.1267,4714.12
2055.6267,4714.11
2056.1267,4713.88
2056.6267,4713.4
2057.1267,4712.65
2057.6267,4711.59
2058.1267,4710.16
2058.6267,4708.35
2059.1267,4706.33
2059.6267,4704.48
2060.1267,4703.15
2060.6267,4702.7
2061.1267,4703.29
2061.6267,4704.53
2062.1267,4705.92
2062.6267,4707
2063.1267,4707.31
2063.6267,4706.7
2064.1267,4705.21
2064.6267,4702.87
2065.1267,4699.72
2065.6267,4695.99
2066.1267,4692.28
2066.6267,4689.25
2067.1267,4687.54
2067.6267,4687.68
2068.1267,4689.16
2068.6267,4690.97
2069.1267,4692.08
2069.6267,4691.47
2070.1267,4688.93
2070.6267,4685.5
2071.1267,4682.35
2071.6267,4680.66
2072.1267,4681.34
2072.6267,4683.85
2073.1267,4687.07
2073.6267,4689.88
2074.1267,4691.18
2074.6267,4690.61
2075.1267,4688.76
2075.6267,4686.31
2076.1267,4683.91
2076.6267,4682.15
2077.1267,4681.27
2077.6267,4681.4
2078.1267,4682.68
2078.6267,4685.22
2079.1267,4688.65
2079.6267,4692.07
2080.1267,4694.58
2080.6267,4695.28
2081.1267,4693.6
2081.6267,4690.14
2082.1267,4685.75
2082.6267,4681.31
2083.1267,4677.63
2083.6267,4674.86
2084.1267,4672.7
2084.6267,4670.79
2085.1267,4668.78
2085.6267,4666.56
2086.1267,4664.57
2086.6267,4663.33
2087.1267,4663.36
2087.6267,4665.13
2088.1267,4668.2
2088.6267,4671.65
2089.1267,4674.55
2089.6267,4675.98
2090.1267,4675.45
2090.6267,4673.35
2091.1267,4670.16
2091.6267,4666.34
2092.1267,4662.41
2092.6267,4659.07
2093.1267,4657.11
2093.6267,4657.31
2094.1267,4660.44
2094.6267,4666.16
2095.1267,4672.54
2095.6267,4677.55
2096.1267,4679.17
2096.6267,4675.93
2097.1267,4669.26
2097.6267,4661.43
2098.1267,4654.74
2098.6267,4651.39
2099.1267,4651.66
2099.6267,4653.81
2100.1267,4656.02
2100.6267,4656.45
2101.1267,4653.91
2101.6267,4649.33
2102.1267,4644.08
2102.6267,4639.56
2103.1267,4637.08
2103.6267,4636.98
2104.1267,4638.89
2104.6267,4642.39
2105.1267,4647.1
2105.6267,4652.43
2106.1267,4657.33
2106.6267,4660.71
2107.1267,4661.47
2107.6267,4658.69
2108.1267,4653.3
2108.6267,4647.14
2109.1267,4642.08
2109.6267,4639.96
2110.1267,4641.36
2110.6267,4644.75
2111.1267,4648.41
2111.6267,4650.61
2112.1267,4649.98
2112.6267,4647.04
2113.1267,4643.05
2113.6267,4639.26
2114.1267,4636.88
2114.6267,4636.34
2115.1267,4637.13
2115.6267,4638.71
2116.1267,4640.53
2116.6267,4642.06
2117.1267,4642.89
2117.6267,4642.64
2118.1267,4640.93
2118.6267,4637.4
2119.1267,4632.48
2119.6267,4627.16
2120.1267,4622.45
2120.6267,4619.35
2121.1267,4618.47
2121.6267,4619.28
2122.1267,4621.12
2122.6267,4623.34
2123.1267,4625.29
2123.6267,4626.83
2124.1267,4628.01
2124.6267,4628.91
2125.1267,4629.59
2125.6267,4630.05
2126.1267,4630.13
2126.6267,4629.67
2127.1267,4628.49
2127.6267,4626.5
2128.1267,4624.02
2128.6267,4621.5
2129.1267,4619.4
2129.6267,4618.15
2130.1267,4617.92
2130.6267,4618.51
2131.1267,4619.73
2131.6267,4621.38
2132.1267,4623.16
2132.6267,4624.38
2133.1267,4624.29
2133.6267,4622.11
2134.1267,4617.19
2134.6267,4610.18
2135.1267,4602.71
2135.6267,4596.44
2136.1267,4593
2136.6267,4593.19
2137.1267,4595.96
2137.6267,4599.99
2138.1267,4603.99
2138.6267,4606.77
2139.1267,4608.15
2139.6267,4608.36
2140.1267,4607.68
2140.6267,4606.34
2141.1267,4604.6
2141.6267,4602.7
2142.1267,4600.87
2142.6267,4599.35
2143.1267,4598.3
2143.6267,4597.5
2144.1267,4596.61
2144.6267,4595.31
2145.1267,4593.29
2145.6267,4590.61
2146.1267,4587.63
2146.6267,4584.73
2147.1267,4582.31
2147.6267,4580.6
2148.1267,4579.4
2148.6267,4578.48
2149.1267,4577.58
2149.6267,4576.49
2150.1267,4575.42
2150.6267,4574.75
2151.1267,4574.91
2151.6267,4576.29
2152.1267,4578.78
2152.6267,4581.45
2153.1267,4583.3
2153.6267,4583.33
2154.1267,4580.77
2154.6267,4576.25
2155.1267,4570.82
2155.6267,4565.54
2156.1267,4561.45
2156.6267,4558.92
2157.1267,4557.71
2157.6267,4557.52
2158.1267,4558.08
2158.6267,4559.07
2159.1267,4560.1
2159.6267,4560.77
2160.1267,4560.65
2160.6267,4559.42
2161.1267,4557.37
2161.6267,4555.21
2162.1267,4553.65
2162.6267,4553.4
2163.1267,4554.55
2163.6267,4556.15
2164.1267,4557.16
2164.6267,4556.52
2165.1267,4553.46
2165.6267,4548.76
2166.1267,4543.76
2166.6267,4539.79
2167.1267,4538.16
2167.6267,4538.92
2168.1267,4540.91
2168.6267,4542.91
2169.1267,4543.69
2169.6267,4542.44
2170.1267,4539.63
2170.6267,4536
2171.1267,4532.26
2171.6267,4529.12
2172.1267,4526.99
2172.6267,4526.11
2173.1267,4526.73
2173.6267,4529.08
2174.1267,4532.9
2174.6267,4537.02
2175.1267,4540.22
2175.6267,4541.26
2176.1267,4539.21
2176.6267,4534.75
2177.1267,4529.12
2177.6267,4523.55
2178.1267,4519.24
2178.6267,4516.59
2179.1267,4515.21
2179.6267,4514.69
2180.1267,4514.6
2180.6267,4514.6
2181.1267,4514.54
2181.6267,4514.31
2182.1267,4513.8
2182.6267,4512.93
2183.1267,4511.78
2183.6267,4510.52
2184.1267,4509.35
2184.6267,4508.44
2185.1267,4507.86
2185.6267,4507.48
2186.1267,4507.18
2186.6267,4506.82
2187.1267,4506.26
2187.6267,4505.34
2188.1267,4503.89
2188.6267,4501.73
2189.1267,4498.72
2189.6267,4495.15
2190.1267,4491.68
2190.6267,4488.98
2191.1267,4487.71
2191.6267,4488.19
2192.1267,4489.85
2192.6267,4491.98
2193.1267,4493.89
2193.6267,4494.91
2194.1267,4494.66
2194.6267,4492.89
2195.1267,4489.36
2195.6267,4483.83
2196.1267,4476.85
2196.6267,4469.96
2197.1267,4464.78
2197.6267,4462.91
2198.1267,4465.33
2198.6267,4470.69
2199.1267,4477.06
2199.6267,4482.52
2200.1267,4485.27
2200.6267,4485.02
2201.1267,4482.54
2201.6267,4478.64
2202.1267,4474.11
2202.6267,4469.57
2203.1267,4465.37
2203.6267,4461.79
2204.1267,4459.14
2204.6267,4457.64
2205.1267,4457.05
2205.6267,4457
2206.1267,4457.11
2206.6267,4456.99
2207.1267,4456.42
2207.6267,4455.29
2208.1267,4453.53
2208.6267,4451.04
2209.1267,4447.89
2209.6267,4444.56
2210.1267,4441.58
2210.6267,4439.51
2211.1267,4438.82
2211.6267,4439.33
2212.1267,4440.54
2212.6267,4441.95
2213.1267,4443.05
2213.6267,4443.56
2214.1267,4443.48
2214.6267,4442.85
2215.1267,4441.69
2215.6267,4440.04
2216.1267,4437.94
2216.6267,4435.42
2217.1267,4432.53
2217.6267,4429.33
2218.1267,4426.03
2218.6267,4422.97
2219.1267,4420.47
2219.6267,4418.88
2220.1267,4418.28
2220.6267,4418.31
2221.1267,4418.56
2221.6267,4418.62
2222.1267,4418.17
2222.6267,4417.35
2223.1267,4416.49
2223.6267,4415.9
2224.1267,4415.86
2224.6267,4416.26
2225.1267,4416.56
2225.6267,4416.24
2226.1267,4414.75
2226.6267,4411.88
2227.1267,4408.14
2227.6267,4404.2
2228.1267,4400.69
2228.6267,4398.19
2229.1267,4396.62
2229.6267,4395.63
2230.1267,4394.86
2230.6267,4393.98
2231.1267,4392.85
2231.6267,4391.62
2232.1267,4390.43
2232.6267,4389.44
2233.1267,4388.74
2233.6267,4388.24
2234.1267,4387.83
2234.6267,4387.36
2235.1267,4386.73
2235.6267,4385.9
2236.1267,4384.87
2236.6267,4383.67
2237.1267,4382.29
2237.6267,4380.77
2238.1267,4379.13
2238.6267,4377.4
2239.1267,4375.61
2239.6267,4373.81
2240.1267,4372.11
2240.6267,4370.63
2241.1267,4369.5
2241.6267,4368.82
2242.1267,4368.52
2242.6267,4368.36
2243.1267,4368.13
2243.6267,4367.61
2244.1267,4366.71
2244.6267,4365.59
2245.1267,4364.45
2245.6267,4363.46
2246.1267,4362.78
2246.6267,4362.42
2247.1267,4362.31
2247.6267,4362.41
2248.1267,4362.65
2248.6267,4362.82
2249.1267,4362.54
2249.6267,4361.44
2250.1267,4359.17
2250.6267,4355.78
2251.1267,4352.22
2251.6267,4349.54
2252.1267,4348.8
2252.6267,4350.76
2253.1267,4354.4
2253.6267,4358.05
2254.1267,4360.03
2254.6267,4358.75
2255.1267,4354.23
2255.6267,4348.01
2256.1267,4341.68
2256.6267,4336.83
2257.1267,4334.42
2257.6267,4333.93
2258.1267,4334.58
2258.6267,4335.63
2259.1267,4336.43
2259.6267,4336.99
2260.1267,4337.64
2260.6267,4338.69
2261.1267,4340.44
2261.6267,4342.66
2262.1267,4344.58
2262.6267,4345.4
2263.1267,4344.31
2263.6267,4340.94
2264.1267,4336.06
2264.6267,4330.6
2265.1267,4325.51
2265.6267,4321.64
2266.1267,4319.1
2266.6267,4317.68
2267.1267,4317.17
2267.6267,4317.36
2268.1267,4318
2268.6267,4318.85
2269.1267,4319.64
2269.6267,4320.13
2270.1267,4320.12
2270.6267,4319.61
2271.1267,4318.65
2271.6267,4317.27
2272.1267,4315.53
2272.6267,4313.69
2273.1267,4312.11
2273.6267,4311.14
2274.1267,4311.13
2274.6267,4312.06
2275.1267,4313.52
2275.6267,4315.04
2276.1267,4316.18
2276.6267,4316.64
2277.1267,4316.52
2277.6267,4316.03
2278.1267,4315.36
2278.6267,4314.69
2279.1267,4313.97
2279.6267,4313.04
2280.1267,4311.76
2280.6267,4309.96
2281.1267,4307.64
2281.6267,4304.97
2282.1267,4302.11
2282.6267,4299.23
2283.1267,4296.58
2283.6267,4294.56
2284.1267,4293.62
2284.6267,4294.19
2285.1267,4296.62
2285.6267,4300.27
2286.1267,4304.05
2286.6267,4306.86
2287.1267,4307.62
2287.6267,4306.1
2288.1267,4303.05
2288.6267,4299.3
2289.1267,4295.66
2289.6267,4292.76
2290.1267,4290.69
2290.6267,4289.44
2291.1267,4288.99
2291.6267,4289.29
2292.1267,4289.93
2292.6267,4290.35
2293.1267,4289.96
2293.6267,4288.23
2294.1267,4285.22
2294.6267,4281.75
2295.1267,4278.65
2295.6267,4276.76
2296.1267,4276.57
2296.6267,4277.56
2297.1267,4279.01
2297.6267,4280.24
2298.1267,4280.63
2298.6267,4280.22
2299.1267,4279.35
2299.6267,4278.36
2300.1267,4277.57
2300.6267,4277.05
2301.1267,4276.6
2301.6267,4275.99
2302.1267,4275.02
2302.6267,4273.6
2303.1267,4272.05
2303.6267,4270.74
2304.1267,4270.03
2304.6267,4270.23
2305.1267,4271.15
2305.6267,4272.41
2306.1267,4273.63
2306.6267,4274.45
2307.1267,4274.85
2307.6267,4275.12
2308.1267,4275.58
2308.6267,4276.54
2309.1267,4278.07
2309.6267,4279.71
2310.1267,4280.89
2310.6267,4281.07
2311.1267,4279.79
2311.6267,4277.07
2312.1267,4273.12
2312.6267,4268.15
2313.1267,4262.4
2313.6267,4256.62
2314.1267,4251.99
2314.6267,4249.68
2315.1267,4250.88
2315.6267,4255.67
2316.1267,4261.97
2316.6267,4267.43
2317.1267,4269.72
2317.6267,4267.11
2318.1267,4260.92
2318.6267,4253.38
2319.1267,4246.72
2319.6267,4243.06
2320.1267,4242.67
2320.6267,4244.48
2321.1267,4247.4
2321.6267,4250.36
2322.1267,4252.62
2322.6267,4254.06
2323.1267,4254.61
2323.6267,4254.2
2324.1267,4252.86
2324.6267,4251
2325.1267,4249.12
2325.6267,4247.75
2326.1267,4247.33
2326.6267,4247.83
2327.1267,4248.93
2327.6267,4250.29
2328.1267,4251.56
2328.6267,4252.41
2329.1267,4252.47
2329.6267,4251.4
2330.1267,4248.83
2330.6267,4244.69
2331.1267,4239.81
2331.6267,4235.17
2332.1267,4231.79
2332.6267,4230.5
2333.1267,4230.93
2333.6267,4232.14
2334.1267,4233.16
2334.6267,4233.06
2335.1267,4231.63
2335.6267,4229.42
2336.1267,4227.01
2336.6267,4225.01
2337.1267,4223.83
2337.6267,4223.42
2338.1267,4223.7
2338.6267,4224.55
2339.1267,4225.85
2339.6267,4227.23
2340.1267,4228.28
2340.6267,4228.54
2341.1267,4227.61
2341.6267,4225.63
2342.1267,4223.13
2342.6267,4220.7
2343.1267,4218.91
2343.6267,4218.09
2344.1267,4218.19
2344.6267,4219.11
2345.1267,4220.75
2345.6267,4222.88
2346.1267,4224.81
2346.6267,4225.69
2347.1267,4224.67
2347.6267,4221.05
2348.1267,4215.62
2348.6267,4210.1
2349.1267,4206.22
2349.6267,4205.68
2350.1267,4208.68
2350.6267,4213.35
2351.1267,4217.67
2351.6267,4219.63
2352.1267,4218
2352.6267,4213.95
2353.1267,4209.13
2353.6267,4205.16
2354.1267,4203.44
2354.6267,4203.66
2355.1267,4204.72
2355.6267,4205.53
2356.1267,4205.03
2356.6267,4203.09
2357.1267,4200.49
2357.6267,4198.05
2358.1267,4196.61
2358.6267,4196.59
2359.1267,4197.58
2359.6267,4199.09
2360.1267,4200.6
2360.6267,4201.69
2361.1267,4202.3
2361.6267,4202.52
2362.1267,4202.41
2362.6267,4202.05
2363.1267,4201.59
2363.6267,4201.25
2364.1267,4201.24
2364.6267,4201.75
2365.1267,4202.63
2365.6267,4203.17
2366.1267,4202.62
2366.6267,4200.26
2367.1267,4195.78
2367.6267,4190.34
2368.1267,4185.38
2368.6267,4182.36
2369.1267,4182.47
2369.6267,4185.02
2370.1267,4188.39
2370.6267,4190.99
2371.1267,4191.27
2371.6267,4189.05
2372.1267,4185.48
2372.6267,4181.79
2373.1267,4179.17
2373.6267,4178.31
2374.1267,4178.72
2374.6267,4179.77
2375.1267,4180.85
2375.6267,4181.43
2376.1267,4181.46
2376.6267,4181.05
2377.1267,4180.31
2377.6267,4179.33
2378.1267,4178.28
2378.6267,4177.33
2379.1267,4176.68
2379.6267,4176.49
2380.1267,4176.59
2380.6267,4176.28
2381.1267,4174.83
2381.6267,4171.52
2382.1267,4166.18
2382.6267,4160.24
2383.1267,4155.39
2383.6267,4153.35
2384.1267,4155.46
2384.6267,4160.69
2385.1267,4166.99
2385.6267,4172.36
2386.1267,4174.85
2386.6267,4174.12
2387.1267,4171.16
2387.6267,4167.01
2388.1267,4162.7
2388.6267,4159.06
2389.1267,4156.47
2389.6267,4155.31
2390.1267,4155.93
2390.6267,4158.44
2391.1267,4161.96
2391.6267,4165.38
2392.1267,4167.57
2392.6267,4167.58
2393.1267,4165.81
2393.6267,4163.35
2394.1267,4161.32
2394.6267,4160.78
2395.1267,4161.74
2395.6267,4163.07
2396.1267,4163.57
2396.6267,4162.06
2397.1267,4158.17
2397.6267,4153.25
2398.1267,4148.88
2398.6267,4146.63
2399.1267,4147.64
2399.6267,4150.84
2400.1267,4154.56
2400.6267,4157.11
2401.1267,4156.93
2401.6267,4154.13
2402.1267,4149.81
2402.6267,4145.09
2403.1267,4141.1
2403.6267,4138.41
2404.1267,4136.96
2404.6267,4136.61
2405.1267,4137.26
2405.6267,4138.7
2406.1267,4140.53
2406.6267,4142.31
2407.1267,4143.61
2407.6267,4144.06
2408.1267,4143.83
2408.6267,4143.23
2409.1267,4142.58
2409.6267,4142.2
2410.1267,4142.19
2410.6267,4142.51
2411.1267,4143.1
2411.6267,4143.93
2412.1267,4144.9
2412.6267,4145.82
2413.1267,4146.52
2413.6267,4146.81
2414.1267,4146.55
2414.6267,4145.77
2415.1267,4144.53
2415.6267,4142.87
2416.1267,4140.86
2416.6267,4138.62
2417.1267,4136.32
2417.6267,4134.12
2418.1267,4132.17
2418.6267,4130.63
2419.1267,4129.67
2419.6267,4129.46
2420.1267,4130.15
2420.6267,4131.67
2421.1267,4133.58
2421.6267,4135.45
2422.1267,4136.79
2422.6267,4137.34
2423.1267,4137.37
2423.6267,4137.25
2424.1267,4137.34
2424.6267,4137.92
2425.1267,4138.61
2425.6267,4138.75
2426.1267,4137.72
2426.6267,4134.91
2427.1267,4130.7
2427.6267,4126.21
2428.1267,4122.58
2428.6267,4120.92
2429.1267,4121.55
2429.6267,4123.51
2430.1267,4125.77
2430.6267,4127.28
2431.1267,4127.28
2431.6267,4125.92
2432.1267,4123.5
2432.6267,4120.33
2433.1267,4116.78
2433.6267,4113.42
2434.1267,4110.95
2434.6267,4110.06
2435.1267,4111.36
2435.6267,4114.39
2436.1267,4117.82
2436.6267,4120.31
2437.1267,4120.55
2437.6267,4118.24
2438.1267,4114.6
2438.6267,4110.96
2439.1267,4108.65
2439.6267,4108.49
2440.1267,4109.84
2440.6267,4111.8
2441.1267,4113.45
2441.6267,4114.07
2442.1267,4113.89
2442.6267,4113.49
2443.1267,4113.48
2443.6267,4114.41
2444.1267,4116.06
2444.6267,4117.73
2445.1267,4118.68
2445.6267,4118.21
2446.1267,4116.3
2446.6267,4113.9
2447.1267,4112.03
2447.6267,4111.69
2448.1267,4113.29
2448.6267,4115.75
2449.1267,4117.71
2449.6267,4117.82
2450.1267,4115.14
2450.6267,4110.75
2451.1267,4106.38
2451.6267,4103.78
2452.1267,4104.5
2452.6267,4108.13
2453.1267,4112.98
2453.6267,4117.38
2454.1267,4119.66
2454.6267,4119.4
2455.1267,4117.63
2455.6267,4115.43
2456.1267,4113.89
2456.6267,4113.6
2457.1267,4114.04
2457.6267,4114.57
2458.1267,4114.51
2458.6267,4113.39
2459.1267,4111.43
2459.6267,4109.04
2460.1267,4106.66
2460.6267,4104.66
2461.1267,4103.14
2461.6267,4102.01
2462.1267,4101.2
2462.6267,4100.63
2463.1267,4100.24
2463.6267,4099.96
2464.1267,4099.75
2464.6267,4099.54
2465.1267,4099.23
2465.6267,4098.61
2466.1267,4097.5
2466.6267,4095.67
2467.1267,4093.13
2467.6267,4090.56
2468.1267,4088.77
2468.6267,4088.61
2469.1267,4090.68
2469.6267,4094.22
2470.1267,4097.89
2470.6267,4100.35
2471.1267,4100.37
2471.6267,4098.1
2472.1267,4094.76
2472.6267,4091.61
2473.1267,4089.87
2473.6267,4089.88
2474.1267,4090.74
2474.6267,4091.49
2475.1267,4091.13
2475.6267,4089.25
2476.1267,4086.81
2476.6267,4084.98
2477.1267,4084.92
2477.6267,4087.43
2478.1267,4091.51
2478.6267,4095.58
2479.1267,4098.09
2479.6267,4097.67
2480.1267,4094.79
2480.6267,4090.96
2481.1267,4087.73
2481.6267,4086.54
2482.1267,4087.58
2482.6267,4089.71
2483.1267,4091.71
2483.6267,4092.4
2484.1267,4091.28
2484.6267,4089.1
2485.1267,4086.76
2485.6267,4085.14
2486.1267,4084.8
2486.6267,4085.28
2487.1267,4085.91
2487.6267,4085.98
2488.1267,4084.96
2488.6267,4083.11
2489.1267,4081.05
2489.6267,4079.39
2490.1267,4078.68
2490.6267,4078.84
2491.1267,4079.34
2491.6267,4079.64
2492.1267,4079.2
2492.6267,4077.99
2493.1267,4076.6
2493.6267,4075.64
2494.1267,4075.73
2494.6267,4077.1
2495.1267,4079.11
2495.6267,4081.02
2496.1267,4082.1
2496.6267,4081.8
2497.1267,4080.4
2497.6267,4078.38
2498.1267,4076.23
2498.6267,4074.38
2499.1267,4072.81
2499.6267,4071.32
2500.1267,4069.68
2500.6267,4067.72
2501.1267,4065.62
2501.6267,4063.9
2502.1267,4063.1
2502.6267,4063.73
2503.1267,4065.73
2503.6267,4068.28
2504.1267,4070.48
2504.6267,4071.43
2505.1267,4070.64
2505.6267,4068.61
2506.1267,4065.98
2506.6267,4063.39
2507.1267,4061.39
2507.6267,4060.04
2508.1267,4059.24
2508.6267,4058.92
2509.1267,4058.99
2509.6267,4059.41
2510.1267,4060.12
2510.6267,4061.1
2511.1267,4062.27
2511.6267,4063.48
2512.1267,4064.41
2512.6267,4064.79
2513.1267,4064.32
2513.6267,4063.04
2514.1267,4061.46
2514.6267,4060.12
2515.1267,4059.59
2515.6267,4060.1
2516.1267,4061.12
2516.6267,4061.98
2517.1267,4062.03
2517.6267,4060.84
2518.1267,4059.14
2518.6267,4057.93
2519.1267,4058.27
2519.6267,4060.97
2520.1267,4065.25
2520.6267,4069.46
2521.1267,4071.96
2521.6267,4071.21
2522.1267,4067.27
2522.6267,4061.62
2523.1267,4055.8
2523.6267,4051.3
2524.1267,4048.83
2524.6267,4047.94
2525.1267,4048.08
2525.6267,4048.72
2526.1267,4049.39
2526.6267,4049.82
2527.1267,4049.75
2527.6267,4048.93
2528.1267,4047.24
2528.6267,4045.16
2529.1267,4043.32
2529.6267,4042.34
2530.1267,4042.75
2530.6267,4044.3
2531.1267,4046.36
2531.6267,4048.29
2532.1267,4049.51
2532.6267,4049.83
2533.1267,4049.42
2533.6267,4048.46
2534.1267,4047.13
2534.6267,4045.61
2535.1267,4044.12
2535.6267,4042.87
2536.1267,4042.08
2536.6267,4041.82
2537.1267,4041.96
2537.6267,4042.28
2538.1267,4042.61
2538.6267,4042.75
2539.1267,4042.55
2539.6267,4041.87
2540.1267,4040.57
2540.6267,4038.56
2541.1267,4036.11
2541.6267,4033.66
2542.1267,4031.62
2542.6267,4030.4
2543.1267,4030.01
2543.6267,4030.24
2544.1267,4030.88
2544.6267,4031.7
2545.1267,4032.47
2545.6267,4032.95
2546.1267,4032.9
2546.6267,4032.06
2547.1267,4030.5
2547.6267,4028.76
2548.1267,4027.44
2548.6267,4027.13
2549.1267,4028.12
2549.6267,4029.79
2550.1267,4031.34
2550.6267,4032.01
2551.1267,4031.23
2551.6267,4029.59
2552.1267,4028.03
2552.6267,4027.48
2553.1267,4028.72
2553.6267,4031.37
2554.1267,4034.45
2554.6267,4036.95
2555.1267,4037.94
2555.6267,4037.21
2556.1267,4035.22
2556.6267,4032.4
2557.1267,4029.21
2557.6267,4026.13
2558.1267,4023.64
2558.6267,4022.23
2559.1267,4022.4
2559.6267,4024.2
2560.1267,4026.79
2560.6267,4029.22
2561.1267,4030.52
2561.6267,4030.1
2562.1267,4028.49
2562.6267,4026.53
2563.1267,4025.02
2563.6267,4024.6
2564.1267,4025.03
2564.6267,4025.71
2565.1267,4026.05
2565.6267,4025.52
2566.1267,4024.19
2566.6267,4022.5
2567.1267,4020.9
2567.6267,4019.79
2568.1267,4019.24
2568.6267,4018.95
2569.1267,4018.64
2569.6267,4018.02
2570.1267,4017.04
2570.6267,4016.04
2571.1267,4015.36
2571.6267,4015.37
2572.1267,4016.18
2572.6267,4017.39
2573.1267,4018.52
2573.6267,4019.11
2574.1267,4018.77
2574.6267,4017.54
2575.1267,4015.49
2575.6267,4012.72
2576.1267,4009.38
2576.6267,4005.93
2577.1267,4002.92
2577.6267,4000.92
2578.1267,4000.44
2578.6267,4001.44
2579.1267,4003.56
2579.6267,4006.42
2580.1267,4009.67
2580.6267,4012.88
2581.1267,4015.62
2581.6267,4017.43
2582.1267,4017.89
2582.6267,4016.96
2583.1267,4015.16
2583.6267,4013.08
2584.1267,4011.26
2584.6267,4010.12
2585.1267,4009.67
2585.6267,4009.89
2586.1267,4010.76
2586.6267,4012.18
2587.1267,4013.72
2587.6267,4014.93
2588.1267,4015.32
2588.6267,4014.59
2589.1267,4013.2
2589.6267,4011.91
2590.1267,4011.48
2590.6267,4012.53
2591.1267,4014.53
2591.6267,4016.31
2592.1267,4016.72
2592.6267,4014.66
2593.1267,4010.37
2593.6267,4005.11
2594.1267,4000.18
2594.6267,3996.85
2595.1267,3995.55
2595.6267,3995.72
2596.1267,3996.72
2596.6267,3997.91
2597.1267,3998.87
2597.6267,3999.58
2598.1267,4000.06
2598.6267,4000.32
2599.1267,4000.4
2599.6267,4000.33
2600.1267,4000.15
2600.6267,3999.91
2601.1267,3999.64
2601.6267,3999.3
2602.1267,3998.85
2602.6267,3998.23
2603.1267,3997.45
2603.6267,3996.79
2604.1267,3996.65
2604.6267,3997.46
2605.1267,3999.52
2605.6267,4002.09
2606.1267,4003.73
2606.6267,4003.01
2607.1267,3998.57
2607.6267,3991.15
2608.1267,3983.41
2608.6267,3978.13
2609.1267,3978.01
2609.6267,3983.4
2610.1267,3991.41
2610.6267,3998.89
2611.1267,4002.69
2611.6267,4001.28
2612.1267,3996.43
2612.6267,3990.33
2613.1267,3985.16
2613.6267,3982.48
2614.1267,3981.96
2614.6267,3982.87
2615.1267,3984.5
2615.6267,3986.16
2616.1267,3987.39
2616.6267,3987.79
2617.1267,3986.96
2617.6267,3984.59
2618.1267,3981.26
2618.6267,3977.9
2619.1267,3975.46
2619.6267,3974.79
2620.1267,3975.85
2620.6267,3977.97
2621.1267,3980.46
2621.6267,3982.67
2622.1267,3984.29
2622.6267,3985.36
2623.1267,3985.95
2623.6267,3986.11
2624.1267,3985.9
2624.6267,3985.36
2625.1267,3984.56
2625.6267,3983.54
2626.1267,3982.38
2626.6267,3981.23
2627.1267,3980.24
2627.6267,3979.55
2628.1267,3979.2
2628.6267,3978.89
2629.1267,3978.26
2629.6267,3976.96
2630.1267,3974.78
2630.6267,3972.31
2631.1267,3970.3
2631.6267,3969.55
2632.1267,3970.63
2632.6267,3972.87
2633.1267,3975.1
2633.6267,3976.11
2634.1267,3974.88
2634.6267,3971.92
2635.1267,3968.68
2635.6267,3966.59
2636.1267,3967
2636.6267,3969.72
2637.1267,3973.28
2637.6267,3976.16
2638.1267,3976.86
2638.6267,3975.14
2639.1267,3972.17
2639.6267,3969.19
2640.1267,3967.47
2640.6267,3967.51
2641.1267,3968.64
2641.6267,3970.06
2642.1267,3971
2642.6267,3970.95
2643.1267,3970.13
2643.6267,3968.85
2644.1267,3967.42
2644.6267,3966.13
2645.1267,3965.14
2645.6267,3964.57
2646.1267,3964.57
2646.6267,3965.2
2647.1267,3966.16
2647.6267,3967.04
2648.1267,3967.42
2648.6267,3966.98
2649.1267,3966.03
2649.6267,3965.15
2650.1267,3964.93
2650.6267,3965.89
2651.1267,3967.69
2651.6267,3969.48
2652.1267,3970.4
2652.6267,3969.63
2653.1267,3967.32
2653.6267,3964.45
2654.1267,3962.01
2654.6267,3960.97
2655.1267,3961.5
2655.6267,3962.76
2656.1267,3963.87
2656.6267,3963.97
2657.1267,3962.75
2657.6267,3960.78
2658.1267,3958.74
2658.6267,3957.29
2659.1267,3956.77
2659.6267,3956.73
2660.1267,3956.66
2660.6267,3956.02
2661.1267,3954.49
2661.6267,3952.44
2662.1267,3950.39
2662.6267,3948.84
2663.1267,3948.14
2663.6267,3947.95
2664.1267,3947.72
2664.6267,3946.91
2665.1267,3945.15
2665.6267,3943.12
2666.1267,3941.95
2666.6267,3942.72
2667.1267,3946.35
2667.6267,3951.82
2668.1267,3957.11
2668.6267,3960.16
2669.1267,3959.09
2669.6267,3954.42
2670.1267,3948.43
2670.6267,3943.41
2671.1267,3941.59
2671.6267,3943.19
2672.1267,3946.5
2672.6267,3949.69
2673.1267,3950.99
2673.6267,3949.88
2674.1267,3947.5
2674.6267,3945.07
2675.1267,3943.84
2675.6267,3944.19
2676.1267,3945.03
2676.6267,3945.14
2677.1267,3943.27
2677.6267,3939.03
2678.1267,3934.02
2678.6267,3930.14
2679.1267,3929.28
2679.6267,3932.53
2680.1267,3938.4
2680.6267,3944.89
2681.1267,3949.97
2681.6267,3952.03
2682.1267,3951.27
2682.6267,3948.36
2683.1267,3943.99
2683.6267,3938.85
2684.1267,3933.57
2684.6267,3928.79
2685.1267,3925.15
2685.6267,3923.21
2686.1267,3922.96
2686.6267,3924.08
2687.1267,3926.25
2687.6267,3929.14
2688.1267,3932.03
2688.6267,3934
2689.1267,3934.11
2689.6267,3931.48
2690.1267,3926.57
2690.6267,3920.96
2691.1267,3916.28
2691.6267,3914.13
2692.1267,3914.68
2692.6267,3916.56
2693.1267,3918.27
2693.6267,3918.36
2694.1267,3916.38
2694.6267,3913.34
2695.1267,3910.42
2695.6267,3908.76
2696.1267,3908.93
2696.6267,3910.39
2697.1267,3912.46
2697.6267,3914.48
2698.1267,3915.93
2698.6267,3916.66
2699.1267,3916.58
2699.6267,3915.62
2700.1267,3913.77
2700.6267,3911.37
2701.1267,3908.81
2701.6267,3906.47
2702.1267,3904.7
2702.6267,3903.6
2703.1267,3903.22
2703.6267,3903.59
2704.1267,3904.71
2704.6267,3906.15
2705.1267,3907.36
2705.6267,3907.77
2706.1267,3906.92
2706.6267,3904.99
2707.1267,3902.52
2707.6267,3900.01
2708.1267,3897.97
2708.6267,3896.62
2709.1267,3896.03
2709.6267,3896.26
2710.1267,3897.34
2710.6267,3898.8
2711.1267,3899.76
2711.6267,3899.37
2712.1267,3896.77
2712.6267,3892.29
2713.1267,3887.3
2713.6267,3883.25
2714.1267,3881.55
2714.6267,3882.43
2715.1267,3884.71
2715.6267,3887.09
2716.1267,3888.3
2716.6267,3887.86
2717.1267,3886.45
2717.6267,3884.89
2718.1267,3883.98
2718.6267,3884.14
2719.1267,3885.07
2719.6267,3886.39
2720.1267,3887.7
2720.6267,3888.62
2721.1267,3888.8
2721.6267,3887.9
2722.1267,3885.55
2722.6267,3881.75
2723.1267,3877.47
2723.6267,3873.93
2724.1267,3872.3
2724.6267,3873.35
2725.1267,3876.08
2725.6267,3879.03
2726.1267,3880.76
2726.6267,3880.12
2727.1267,3877.58
2727.6267,3874.11
2728.1267,3870.69
2728.6267,3868.21
2729.1267,3867
2729.6267,3867.18
2730.1267,3868.86
2730.6267,3872.04
2731.1267,3876
2731.6267,3879.6
2732.1267,3881.72
2732.6267,3881.34
2733.1267,3878.78
2733.6267,3875.14
2734.1267,3871.55
2734.6267,3869.09
2735.1267,3867.82
2735.6267,3867.08
2736.1267,3866.18
2736.6267,3864.46
2737.1267,3861.98
2737.6267,3859.46
2738.1267,3857.64
2738.6267,3857.22
2739.1267,3858.1
2739.6267,3859.24
2740.1267,3859.52
2740.6267,3857.9
2741.1267,3854.34
2741.6267,3850.31
2742.1267,3847.33
2742.6267,3846.94
2743.1267,3849.44
2743.6267,3853.13
2744.1267,3856.1
2744.6267,3856.45
2745.1267,3853.45
2745.6267,3848.66
2746.1267,3843.9
2746.6267,3841.02
2747.1267,3841.01
2747.6267,3842.86
2748.1267,3845.22
2748.6267,3846.78
2749.1267,3846.62
2749.6267,3845.03
2750.1267,3842.52
2750.6267,3839.6
2751.1267,3836.74
2751.6267,3834.21
2752.1267,3832.26
2752.6267,3831.12
2753.1267,3831.01
2753.6267,3831.99
2754.1267,3834.09
2754.6267,3837.32
2755.1267,3841.54
2755.6267,3845.66
2756.1267,3848.26
2756.6267,3847.93
2757.1267,3843.62
2757.6267,3836.8
2758.1267,3829.89
2758.6267,3825.35
2759.1267,3825.23
2759.6267,3828.59
2760.1267,3833
2760.6267,3836.03
2761.1267,3835.52
2761.6267,3831.96
2762.1267,3827.35
2762.6267,3823.68
2763.1267,3822.81
2763.6267,3824.56
2764.1267,3827.41
2764.6267,3829.81
2765.1267,3830.29
2765.6267,3828.73
2766.1267,3826.02
2766.6267,3823.08
2767.1267,3820.83
2767.6267,3819.63
2768.1267,3819.41
2768.6267,3820.06
2769.1267,3821.44
2769.6267,3823.08
2770.1267,3824.1
2770.6267,3823.61
2771.1267,3820.77
2771.6267,3815.83
2772.1267,3810.45
2772.6267,3806.35
2773.1267,3805.23
2773.6267,3807.51
2774.1267,3811.76
2774.6267,3816.4
2775.1267,3819.88
2775.6267,3821.41
2776.1267,3821.5
2776.6267,3820.74
2777.1267,3819.75
2777.6267,3818.89
2778.1267,3818.02
2778.6267,3816.97
2779.1267,3815.57
2779.6267,3813.78
2780.1267,3811.9
2780.6267,3810.26
2781.1267,3809.18
2781.6267,3808.88
2782.1267,3809.28
2782.6267,3810.25
2783.1267,3811.68
2783.6267,3813.39
2784.1267,3815.12
2784.6267,3816.56
2785.1267,3817.43
2785.6267,3817.51
2786.1267,3816.88
2786.6267,3815.69
2787.1267,3814.07
2787.6267,3812.17
2788.1267,3810.09
2788.6267,3807.95
2789.1267,3805.86
2789.6267,3803.95
2790.1267,3802.3
2790.6267,3801.03
2791.1267,3800.24
2791.6267,3800.01
2792.1267,3800.31
2792.6267,3801.11
2793.1267,3802.33
2793.6267,3803.88
2794.1267,3805.44
2794.6267,3806.57
2795.1267,3806.86
2795.6267,3805.98
2796.1267,3804.21
2796.6267,3802.09
2797.1267,3800.13
2797.6267,3798.81
2798.1267,3798.19
2798.6267,3798.12
2799.1267,3798.47
2799.6267,3799.08
2800.1267,3799.73
2800.6267,3800.12
2801.1267,3799.98
2801.6267,3799.04
2802.1267,3797.39
2802.6267,3795.25
2803.1267,3792.87
2803.6267,3790.5
2804.1267,3788.44
2804.6267,3786.99
2805.1267,3786.49
2805.6267,3787.21
2806.1267,3788.88
2806.6267,3790.86
2807.1267,3792.49
2807.6267,3793.17
2808.1267,3792.79
2808.6267,3791.67
2809.1267,3790.11
2809.6267,3788.45
2810.1267,3786.83
2810.6267,3785.31
2811.1267,3783.96
2811.6267,3782.81
2812.1267,3781.98
2812.6267,3781.6
2813.1267,3781.82
2813.6267,3782.78
2814.1267,3784.32
2814.6267,3786
2815.1267,3787.37
2815.6267,3787.97
2816.1267,3787.84
2816.6267,3787.46
2817.1267,3787.35
2817.6267,3788.01
2818.1267,3789.28
2818.6267,3790.26
2819.1267,3790
2819.6267,3787.58
2820.1267,3783.19
2820.6267,3778.34
2821.1267,3774.67
2821.6267,3773.76
2822.1267,3775.75
2822.6267,3778.88
2823.1267,3781.25
2823.6267,3781
2824.1267,3777.72
2824.6267,3773.15
2825.1267,3769.18
2825.6267,3767.67
2826.1267,3769.14
2826.6267,3772
2827.1267,3774.5
2827.6267,3774.9
2828.1267,3772.57
2828.6267,3768.68
2829.1267,3764.59
2829.6267,3761.64
2830.1267,3760.51
2830.6267,3760.68
2831.1267,3761.52
2831.6267,3762.41
2832.1267,3762.97
2832.6267,3763.35
2833.1267,3763.72
2833.6267,3764.26
2834.1267,3765.03
2834.6267,3765.82
2835.1267,3766.42
2835.6267,3766.59
2836.1267,3766.2
2836.6267,3765.34
2837.1267,3764.09
2837.6267,3762.57
2838.1267,3760.87
2838.6267,3759.12
2839.1267,3757.44
2839.6267,3755.94
2840.1267,3754.73
2840.6267,3753.9
2841.1267,3753.52
2841.6267,3753.67
2842.1267,3754.27
2842.6267,3754.88
2843.1267,3754.98
2843.6267,3754.07
2844.1267,3752.02
2844.6267,3749.64
2845.1267,3747.88
2845.6267,3747.71
2846.1267,3749.56
2846.6267,3752.55
2847.1267,3755.59
2847.6267,3757.56
2848.1267,3757.8
2848.6267,3756.89
2849.1267,3755.58
2849.6267,3754.63
2850.1267,3754.51
2850.6267,3754.81
2851.1267,3754.95
2851.6267,3754.39
2852.1267,3752.8
2852.6267,3750.61
2853.1267,3748.34
2853.6267,3746.57
2854.1267,3745.68
2854.6267,3745.66
2855.1267,3746.42
2855.6267,3747.85
2856.1267,3749.77
2856.6267,3751.74
2857.1267,3753.25
2857.6267,3753.8
2858.1267,3753.06
2858.6267,3751.34
2859.1267,3749.03
2859.6267,3746.52
2860.1267,3744.15
2860.6267,3741.98
2861.1267,3740.02
2861.6267,3738.29
2862.1267,3736.82
2862.6267,3735.66
2863.1267,3734.9
2863.6267,3734.6
2864.1267,3734.74
2864.6267,3735.01
2865.1267,3735.03
2865.6267,3734.44
2866.1267,3733.03
2866.6267,3731.22
2867.1267,3729.56
2867.6267,3728.57
2868.1267,3728.58
2868.6267,3729.13
2869.1267,3729.59
2869.6267,3729.36
2870.1267,3728.03
2870.6267,3726.02
2871.1267,3723.9
2871.6267,3722.23
2872.1267,3721.42
2872.6267,3721.35
2873.1267,3721.78
2873.6267,3722.44
2874.1267,3723.14
2874.6267,3723.81
2875.1267,3724.38
2875.6267,3724.82
2876.1267,3725.02
2876.6267,3724.68
2877.1267,3723.49
2877.6267,3721.11
2878.1267,3717.54
2878.6267,3713.83
2879.1267,3711.25
2879.6267,3711.09
2880.1267,3714.04
2880.6267,3718.91
2881.1267,3724.13
2881.6267,3728.11
2882.1267,3729.74
2882.6267,3729.34
2883.1267,3727.51
2883.6267,3724.88
2884.1267,3721.91
2884.6267,3718.66
2885.1267,3715.08
2885.6267,3711.14
2886.1267,3706.92
2886.6267,3702.84
2887.1267,3699.41
2887.6267,3697.15
2888.1267,3696.37
2888.6267,3696.87
2889.1267,3698.37
2889.6267,3700.56
2890.1267,3703.05
2890.6267,3705.22
2891.1267,3706.37
2891.6267,3705.83
2892.1267,3703.3
2892.6267,3699.67
2893.1267,3696
2893.6267,3693.35
2894.1267,3692.41
2894.6267,3692.74
2895.1267,3693.75
2895.6267,3694.84
2896.1267,3695.51
2896.6267,3695.58
2897.1267,3694.92
2897.6267,3693.4
2898.1267,3691.03
2898.6267,3688.22
2899.1267,3685.44
2899.6267,3683.16
2900.1267,3681.65
2900.6267,3680.68
2901.1267,3679.94
2901.6267,3679.13
2902.1267,3678.09
2902.6267,3677
2903.1267,3676.07
2903.6267,3675.53
2904.1267,3675.41
2904.6267,3675.35
2905.1267,3674.93
2905.6267,3673.74
2906.1267,3671.71
2906.6267,3669.43
2907.1267,3667.63
2907.6267,3666.99
2908.1267,3667.77
2908.6267,3669.36
2909.1267,3671.03
2909.6267,3672.08
2910.1267,3672.11
2910.6267,3671.37
2911.1267,3670.17
2911.6267,3668.81
2912.1267,3667.37
2912.6267,3665.59
2913.1267,3663.14
2913.6267,3659.71
2914.1267,3655.55
2914.6267,3651.84
2915.1267,3649.85
2915.6267,3650.82
2916.1267,3654.82
2916.6267,3660.07
2917.1267,3664.68
2917.6267,3666.75
2918.1267,3665.6
2918.6267,3662.33
2919.1267,3658.17
2919.6267,3654.31
2920.1267,3651.56
2920.6267,3650.15
2921.1267,3650.26
2921.6267,3652.06
2922.1267,3655.11
2922.6267,3658.18
2923.1267,3660
2923.6267,3659.33
2924.1267,3656
2924.6267,3651.07
2925.1267,3645.66
2925.6267,3640.88
2926.1267,3637.41
2926.6267,3635.48
2927.1267,3635.29
2927.6267,3637.01
2928.1267,3640.02
2928.6267,3642.92
2929.1267,3644.29
2929.6267,3642.77
2930.1267,3638.73
2930.6267,3634.05
2931.1267,3630.67
2931.6267,3630.41
2932.1267,3633
2932.6267,3636.41
2933.1267,3638.56
2933.6267,3637.51
2934.1267,3633.38
2934.6267,3627.88
2935.1267,3622.73
2935.6267,3619.58
2936.1267,3618.79
2936.6267,3619.87
2937.1267,3622.31
2937.6267,3625.57
2938.1267,3628.88
2938.6267,3631.32
2939.1267,3631.97
2939.6267,3630.06
2940.1267,3626.34
2940.6267,3622.42
2941.1267,3619.91
2941.6267,3620.21
2942.1267,3622.64
2942.6267,3625.48
2943.1267,3627.01
2943.6267,3625.76
2944.1267,3622.34
2944.6267,3618.31
2945.1267,3615.22
2945.6267,3614.35
2946.1267,3615.21
2946.6267,3616.56
2947.1267,3617.14
2947.6267,3615.97
2948.1267,3613.45
2948.6267,3610.53
2949.1267,3608.14
2949.6267,3607.04
2950.1267,3607.06
2950.6267,3607.75
2951.1267,3608.67
2951.6267,3609.41
2952.1267,3609.92
2952.6267,3610.21
2953.1267,3610.3
2953.6267,3610.16
2954.1267,3609.58
2954.6267,3608.33
2955.1267,3606.16
2955.6267,3603.05
2956.1267,3599.73
2956.6267,3597.08
2957.1267,3595.99
2957.6267,3596.89
2958.1267,3598.85
2958.6267,3600.7
2959.1267,3601.26
2959.6267,3599.9
2960.1267,3597.47
2960.6267,3595
2961.1267,3593.54
2961.6267,3593.62
2962.1267,3594.54
2962.6267,3595.44
2963.1267,3595.49
2963.6267,3594.32
2964.1267,3592.57
2964.6267,3591
2965.1267,3590.34
2965.6267,3590.83
2966.1267,3591.9
2966.6267,3592.85
2967.1267,3593.04
2967.6267,3592.19
2968.1267,3590.61
2968.6267,3588.68
2969.1267,3586.73
2969.6267,3585.03
2970.1267,3583.69
2970.6267,3582.83
2971.1267,3582.55
2971.6267,3582.86
2972.1267,3583.71
2972.6267,3585.02
2973.1267,3586.71
2973.6267,3588.42
2974.1267,3589.54
2974.6267,3589.45
2975.1267,3587.59
2975.6267,3584.21
2976.1267,3580.22
2976.6267,3576.57
2977.1267,3574.14
2977.6267,3573.04
2978.1267,3572.89
2978.6267,3573.25
2979.1267,3573.74
2979.6267,3574.21
2980.1267,3574.71
2980.6267,3575.26
2981.1267,3575.87
2981.6267,3576.56
2982.1267,3577.32
2982.6267,3578.14
2983.1267,3578.97
2983.6267,3579.36
2984.1267,3578.75
2984.6267,3576.52
2985.1267,3572.3
2985.6267,3567
2986.1267,3561.96
2986.6267,3558.52
2987.1267,3557.72
2987.6267,3558.98
2988.1267,3561.25
2988.6267,3563.51
2989.1267,3564.92
2989.6267,3565.56
2990.1267,3565.69
2990.6267,3565.59
2991.1267,3565.5
2991.6267,3565.54
2992.1267,3565.77
2992.6267,3566.29
2993.1267,3567.09
2993.6267,3567.95
2994.1267,3568.61
2994.6267,3568.79
2995.1267,3568.35
2995.6267,3567.42
2996.1267,3566.15
2996.6267,3564.69
2997.1267,3563.17
2997.6267,3561.68
2998.1267,3560.3
2998.6267,3559.12
2999.1267,3558.23
2999.6267,3557.78
3000.1267,3557.9
3000.6267,3558.74
3001.1267,3560.15
3001.6267,3561.64
3002.1267,3562.69
3002.6267,3562.83
3003.1267,3562.01
3003.6267,3560.7
3004.1267,3559.37
3004.6267,3558.47
3005.1267,3558.07
3005.6267,3557.92
3006.1267,3557.73
3006.6267,3557.26
3007.1267,3556.5
3007.6267,3555.65
3008.1267,3554.88
3008.6267,3554.36
3009.1267,3553.95
3009.6267,3553.37
3010.1267,3552.31
3010.6267,3550.58
3011.1267,3548.6
3011.6267,3547.13
3012.1267,3546.9
3012.6267,3548.46
3013.1267,3551.26
3013.6267,3554.3
3014.1267,3556.61
3014.6267,3557.42
3015.1267,3556.98
3015.6267,3555.84
3016.1267,3554.57
3016.6267,3553.57
3017.1267,3552.67
3017.6267,3551.58
3018.1267,3550
3018.6267,3547.88
3019.1267,3545.86
3019.6267,3544.73
3020.1267,3545.26
3020.6267,3547.73
3021.1267,3551.26
3021.6267,3554.8
3022.1267,3557.33
3022.6267,3558.56
3023.1267,3559.67
3023.6267,3561.97
3024.1267,3566.75
3024.6267,3574.36
3025.1267,3583.79
3025.6267,3593.93
3026.1267,3603.65
3026.6267,3612.36
3027.1267,3620.04
3027.6267,3626.69
3028.1267,3632.33
3028.6267,3636.63
3029.1267,3639.02
3029.6267,3638.87
3030.1267,3635.64
3030.6267,3629.58
3031.1267,3621.55
3031.6267,3612.42
3032.1267,3603.01
3032.6267,3593.82
3033.1267,3585.16
3033.6267,3577.31
3034.1267,3570.55
3034.6267,3564.87
3035.1267,3560.19
3035.6267,3556.4
3036.1267,3553.37
3036.6267,3550.82
3037.1267,3548.44
3037.6267,3545.88
3038.1267,3542.95
3038.6267,3540.04
3039.1267,3537.7
3039.6267,3536.46
3040.1267,3536.67
3040.6267,3537.91
3041.1267,3539.65
3041.6267,3541.34
3042.1267,3542.69
3042.6267,3544.02
3043.1267,3545.73
3043.6267,3548.23
3044.1267,3551.84
3044.6267,3556.6
3045.1267,3562.56
3045.6267,3569.76
3046.1267,3578.07
3046.6267,3587.09
3047.1267,3596.39
3047.6267,3605.55
3048.1267,3614.11
3048.6267,3621.55
3049.1267,3627.35
3049.6267,3631.01
3050.1267,3632.57
3050.6267,3632.54
3051.1267,3631.44
3051.6267,3629.79
3052.1267,3627.74
3052.6267,3625.2
3053.1267,3622.09
3053.6267,3618.4
3054.1267,3614.61
3054.6267,3611.48
3055.1267,3609.79
3055.6267,3610.08
3056.1267,3611.64
3056.6267,3613.21
3057.1267,3613.54
3057.6267,3611.53
3058.1267,3606.77
3058.6267,3599.05
3059.1267,3588.16
3059.6267,3574.38
3060.1267,3559.67
3060.6267,3546.35
3061.1267,3536.74
3061.6267,3531.97
3062.1267,3530.21
3062.6267,3529.12
3063.1267,3526.42
3063.6267,3521.1
3064.1267,3514.68
3064.6267,3508.91
3065.1267,3505.54
3065.6267,3505.1
3066.1267,3506.44
3066.6267,3508.27
3067.1267,3509.34
3067.6267,3509.11
3068.1267,3507.81
3068.6267,3505.73
3069.1267,3503.16
3069.6267,3500.64
3070.1267,3498.92
3070.6267,3498.73
3071.1267,3500.69
3071.6267,3503.84
3072.1267,3506.3
3072.6267,3506.18
3073.1267,3501.99
3073.6267,3495.06
3074.1267,3487.97
3074.6267,3483.3
3075.1267,3483.03
3075.6267,3485.91
3076.1267,3489.7
3076.6267,3492.13
3077.1267,3491.56
3077.6267,3488.62
3078.1267,3484.46
3078.6267,3480.23
3079.1267,3476.73
3079.6267,3473.85
3080.1267,3471.31
3080.6267,3468.86
3081.1267,3466.36
3081.6267,3463.9
3082.1267,3461.6
3082.6267,3459.59
3083.1267,3457.86
3083.6267,3456.28
3084.1267,3454.67
3084.6267,3452.9
3085.1267,3450.98
3085.6267,3449.11
3086.1267,3447.51
3086.6267,3446.37
3087.1267,3445.68
3087.6267,3445.25
3088.1267,3444.9
3088.6267,3444.45
3089.1267,3443.66
3089.6267,3442.27
3090.1267,3440.03
3090.6267,3436.77
3091.1267,3433.01
3091.6267,3429.48
3092.1267,3426.95
3092.6267,3425.95
3093.1267,3426.09
3093.6267,3426.73
3094.1267,3427.22
3094.6267,3427.13
3095.1267,3426.58
3095.6267,3425.85
3096.1267,3425.17
3096.6267,3424.71
3097.1267,3424.42
3097.6267,3424.22
3098.1267,3424.03
3098.6267,3423.83
3099.1267,3423.63
3099.6267,3423.46
3100.1267,3423.36
3100.6267,3423.24
3101.1267,3422.92
3101.6267,3422.23
3102.1267,3421
3102.6267,3419.36
3103.1267,3417.68
3103.6267,3416.36
3104.1267,3415.69
3104.6267,3415.39
3105.1267,3414.81
3105.6267,3413.34
3106.1267,3410.48
3106.6267,3406.8
3107.1267,3403.27
3107.6267,3400.83
3108.1267,3400.16
3108.6267,3400.72
3109.1267,3401.62
3109.6267,3401.99
3110.1267,3401.26
3110.6267,3399.72
3111.1267,3397.81
3111.6267,3395.98
3112.1267,3394.53
3112.6267,3393.48
3113.1267,3392.82
3113.6267,3392.53
3114.1267,3392.41
3114.6267,3391.95
3115.1267,3390.62
3115.6267,3387.96
3116.1267,3384.47
3116.6267,3381.63
3117.1267,3380.94
3117.6267,3383.74
3118.1267,3389.06
3118.6267,3394.39
3119.1267,3397.18
3119.6267,3395.28
3120.1267,3389.69
3120.6267,3382.87
3121.1267,3377.32
3121.6267,3374.98
3122.1267,3375.23
3122.6267,3376.6
3123.1267,3377.62
3123.6267,3377.25
3124.1267,3375.82
3124.6267,3373.97
3125.1267,3372.32
3125.6267,3371.23
3126.1267,3370.39
3126.6267,3369.41
3127.1267,3367.91
3127.6267,3365.91
3128.1267,3364
3128.6267,3362.87
3129.1267,3363.13
3129.6267,3364.73
3130.1267,3366.81
3130.6267,3368.53
3131.1267,3369.06
3131.6267,3368.29
3132.1267,3366.64
3132.6267,3364.52
3133.1267,3362.32
3133.6267,3360.2
3134.1267,3358.2
3134.6267,3356.36
3135.1267,3354.69
3135.6267,3353.13
3136.1267,3351.56
3136.6267,3349.9
3137.1267,3348.1
3137.6267,3346.31
3138.1267,3344.75
3138.6267,3343.61
3139.1267,3343.09
3139.6267,3343.31
3140.1267,3344.39
3140.6267,3346.43
3141.1267,3349.1
3141.6267,3351.39
3142.1267,3352.24
3142.6267,3350.65
3143.1267,3346.84
3143.6267,3342.28
3144.1267,3338.47
3144.6267,3336.83
3145.1267,3337.26
3145.6267,3338.69
3146.1267,3340.04
3146.6267,3340.33
3147.1267,3339.57
3147.6267,3338.17
3148.1267,3336.57
3148.6267,3335.12
3149.1267,3333.8
3149.6267,3332.52
3150.1267,3331.15
3150.6267,3329.7
3151.1267,3328.48
3151.6267,3327.85
3152.1267,3328.2
3152.6267,3329.45
3153.1267,3330.7
3153.6267,3330.98
3154.1267,3329.33
3154.6267,3325.78
3155.1267,3321.54
3155.6267,3317.93
3156.1267,3316.18
3156.6267,3316.31
3157.1267,3317.33
3157.6267,3318.22
3158.1267,3318.05
3158.6267,3316.85
3159.1267,3315.17
3159.6267,3313.55
3160.1267,3312.49
3160.6267,3312.11
3161.1267,3312.39
3161.6267,3313.36
3162.1267,3314.86
3162.6267,3316.27
3163.1267,3316.88
3163.6267,3315.95
3164.1267,3313.39
3164.6267,3310.43
3165.1267,3308.52
3165.6267,3309.05
3166.1267,3312.06
3166.6267,3315.63
3167.1267,3317.72
3167.6267,3316.37
3168.1267,3311.83
3168.6267,3306.31
3169.1267,3302.15
3169.6267,3301.41
3170.1267,3303.59
3170.6267,3306.68
3171.1267,3308.63
3171.6267,3307.78
3172.1267,3304.8
3172.6267,3301.27
3173.1267,3298.76
3173.6267,3298.42
3174.1267,3299.73
3174.6267,3301.79
3175.1267,3303.71
3175.6267,3304.87
3176.1267,3305.24
3176.6267,3304.88
3177.1267,3303.86
3177.6267,3302.29
3178.1267,3300.31
3178.6267,3298.09
3179.1267,3295.8
3179.6267,3293.69
3180.1267,3292.1
3180.6267,3291.39
3181.1267,3291.85
3181.6267,3293.3
3182.1267,3295.28
3182.6267,3297.35
3183.1267,3299.05
3183.6267,3300.18
3184.1267,3300.57
3184.6267,3300.06
3185.1267,3298.54
3185.6267,3296.01
3186.1267,3292.47
3186.6267,3287.97
3187.1267,3282.86
3187.6267,3278.26
3188.1267,3275.39
3188.6267,3275.42
3189.1267,3278.3
3189.6267,3282.28
3190.1267,3285.5
3190.6267,3286.2
3191.1267,3284.36
3191.6267,3281.47
3192.1267,3279.06
3192.6267,3278.49
3193.1267,3279.41
3193.6267,3280.62
3194.1267,3280.86
3194.6267,3279.19
3195.1267,3276.08
3195.6267,3272.45
3196.1267,3269.25
3196.6267,3267.16
3197.1267,3266.11
3197.6267,3265.92
3198.1267,3266.37
3198.6267,3267.23
3199.1267,3268.14
3199.6267,3268.79
3200.1267,3268.83
3200.6267,3268.25
3201.1267,3267.43
3201.6267,3266.74
3202.1267,3266.54
3202.6267,3266.71
3203.1267,3266.82
3203.6267,3266.46
3204.1267,3265.24
3204.6267,3263.29
3205.1267,3260.94
3205.6267,3258.51
3206.1267,3256.28
3206.6267,3254.4
3207.1267,3252.97
3207.6267,3252.08
3208.1267,3251.81
3208.6267,3252.15
3209.1267,3253.09
3209.6267,3254.63
3210.1267,3256.41
3210.6267,3257.65
3211.1267,3257.52
3211.6267,3255.25
3212.1267,3251.17
3212.6267,3246.58
3213.1267,3242.79
3213.6267,3240.96
3214.1267,3240.78
3214.6267,3241.12
3215.1267,3240.87
3215.6267,3239.19
3216.1267,3236.62
3216.6267,3234.11
3217.1267,3232.61
3217.6267,3232.62
3218.1267,3233.44
3218.6267,3234.11
3219.1267,3233.71
3219.6267,3231.94
3220.1267,3229.61
3220.6267,3227.6
3221.1267,3226.78
3221.6267,3227.32
3222.1267,3228.71
3222.6267,3230.4
3223.1267,3231.89
3223.6267,3232.99
3224.1267,3233.74
3224.6267,3234.17
3225.1267,3234.32
3225.6267,3234.25
3226.1267,3234.01
3226.6267,3233.67
3227.1267,3233.21
3227.6267,3232.4
3228.1267,3230.97
3228.6267,3228.66
3229.1267,3225.54
3229.6267,3222.35
3230.1267,3219.86
3230.6267,3218.84
3231.1267,3219.36
3231.6267,3220.76
3232.1267,3222.35
3232.6267,3223.47
3233.1267,3223.87
3233.6267,3223.57
3234.1267,3222.58
3234.6267,3220.99
3235.1267,3219.27
3235.6267,3218.02
3236.1267,3217.83
3236.6267,3219
3237.1267,3220.71
3237.6267,3221.96
3238.1267,3221.74
3238.6267,3219.74
3239.1267,3216.93
3239.6267,3214.42
3240.1267,3213.3
3240.6267,3213.69
3241.1267,3214.74
3241.6267,3215.55
3242.1267,3215.27
3242.6267,3214.14
3243.1267,3213
3243.6267,3212.73
3244.1267,3213.97
3244.6267,3215.99
3245.1267,3217.6
3245.6267,3217.61
3246.1267,3215.42
3246.6267,3212.32
3247.1267,3209.98
3247.6267,3210.06
3248.1267,3212.94
3248.6267,3216.86
3249.1267,3219.81
3249.6267,3219.88
3250.1267,3216.9
3250.6267,3212.51
3251.1267,3208.41
3251.6267,3206.14
3252.1267,3205.68
3252.6267,3206.06
3253.1267,3206.32
3253.6267,3205.69
3254.1267,3204.53
3254.6267,3203.52
3255.1267,3203.35
3255.6267,3204.34
3256.1267,3205.76
3256.6267,3206.7
3257.1267,3206.24
3257.6267,3204.13
3258.1267,3201.03
3258.6267,3197.75
3259.1267,3195.01
3259.6267,3193.11
3260.1267,3191.9
3260.6267,3191.21
3261.1267,3190.89
3261.6267,3190.81
3262.1267,3190.85
3262.6267,3190.9
3263.1267,3190.84
3263.6267,3190.58
3264.1267,3190.03
3264.6267,3189.09
3265.1267,3187.84
3265.6267,3186.72
3266.1267,3186.21
3266.6267,3186.79
3267.1267,3188.2
3267.6267,3189.31
3268.1267,3188.9
3268.6267,3185.88
3269.1267,3180.82
3269.6267,3175.5
3270.1267,3171.74
3270.6267,3171
3271.1267,3172.59
3271.6267,3174.93
3272.1267,3176.44
3272.6267,3176.06
3273.1267,3174.41
3273.6267,3172.5
3274.1267,3171.29
3274.6267,3171.23
3275.1267,3171.79
3275.6267,3172.33
3276.1267,3172.24
3276.6267,3171.29
3277.1267,3169.64
3277.6267,3167.47
3278.1267,3164.96
3278.6267,3162.37
3279.1267,3160.01
3279.6267,3158.18
3280.1267,3157.13
3280.6267,3156.85
3281.1267,3157.28
3281.6267,3158.32
3282.1267,3159.7
3282.6267,3160.72
3283.1267,3160.58
3283.6267,3158.51
3284.1267,3154.72
3284.6267,3150.64
3285.1267,3147.82
3285.6267,3147.66
3286.1267,3149.78
3286.6267,3152.49
3287.1267,3154.07
3287.6267,3153.12
3288.1267,3150.23
3288.6267,3146.79
3289.1267,3144.16
3289.6267,3143.27
3290.1267,3143.6
3290.6267,3144.35
3291.1267,3144.73
3291.6267,3144.27
3292.1267,3143.08
3292.6267,3141.29
3293.1267,3139.06
3293.6267,3136.64
3294.1267,3134.35
3294.6267,3132.52
3295.1267,3131.43
3295.6267,3130.89
3296.1267,3130.52
3296.6267,3129.9
3297.1267,3128.79
3297.6267,3127.57
3298.1267,3126.74
3298.6267,3126.83
3299.1267,3127.88
3299.6267,3129.02
3300.1267,3129.22
3300.6267,3127.52
3301.1267,3124.07
3301.6267,3120.19
3302.1267,3117.27
3302.6267,3116.57
3303.1267,3117.94
3303.6267,3120.43
3304.1267,3123.06
3304.6267,3124.99
3305.1267,3125.94
3305.6267,3125.81
3306.1267,3124.47
3306.6267,3122.02
3307.1267,3119.03
3307.6267,3116.11
3308.1267,3113.89
3308.6267,3112.58
3309.1267,3111.9
3309.6267,3111.52
3310.1267,3111.15
3310.6267,3110.84
3311.1267,3110.81
3311.6267,3111.31
3312.1267,3112.46
3312.6267,3113.69
3313.1267,3114.22
3313.6267,3113.25
3314.1267,3110.5
3314.6267,3107.12
3315.1267,3104.48
3315.6267,3103.9
3316.1267,3105.57
3316.6267,3108.1
3317.1267,3109.97
3317.6267,3109.79
3318.1267,3107.57
3318.6267,3104.38
3319.1267,3101.33
3319.6267,3099.31
3320.1267,3098.05
3320.6267,3096.86
3321.1267,3095.04
3321.6267,3092.28
3322.1267,3089.34
3322.6267,3087.16
3323.1267,3086.67
3323.6267,3088.06
3324.1267,3090.43
3324.6267,3092.79
3325.1267,3094.21
3325.6267,3094.41
3326.1267,3093.62
3326.6267,3092.07
3327.1267,3090.04
3327.6267,3087.99
3328.1267,3086.47
3328.6267,3086.02
3329.1267,3086.85
3329.6267,3088.22
3330.1267,3089.2
3330.6267,3088.89
3331.1267,3087.05
3331.6267,3084.44
3332.1267,3081.9
3332.6267,3080.2
3333.1267,3079.41
3333.6267,3079.02
3334.1267,3078.51
3334.6267,3077.46
3335.1267,3076.08
3335.6267,3074.8
3336.1267,3074.05
3336.6267,3074.05
3337.1267,3074.37
3337.6267,3074.48
3338.1267,3073.85
3338.6267,3072.37
3339.1267,3070.48
3339.6267,3068.66
3340.1267,3067.37
3340.6267,3066.53
3341.1267,3065.69
3341.6267,3064.4
3342.1267,3062.36
3342.6267,3060.14
3343.1267,3058.6
3343.6267,3058.63
3344.1267,3060.52
3344.6267,3063.06
3345.1267,3064.77
3345.6267,3064.23
3346.1267,3061.07
3346.6267,3056.31
3347.1267,3051.09
3347.6267,3046.49
3348.1267,3043.09
3348.6267,3041.1
3349.1267,3040.75
3349.6267,3042.09
3350.1267,3044.27
3350.6267,3046.2
3351.1267,3046.75
3351.6267,3045.42
3352.1267,3043.15
3352.6267,3041.06
3353.1267,3040.27
3353.6267,3041
3354.1267,3042.46
3354.6267,3043.77
3355.1267,3044.15
3355.6267,3043.54
3356.1267,3042.28
3356.6267,3040.74
3357.1267,3039.2
3357.6267,3037.54
3358.1267,3035.6
3358.6267,3033.17
3359.1267,3030.34
3359.6267,3027.71
3360.1267,3025.94
3360.6267,3025.69
3361.1267,3026.91
3361.6267,3028.85
3362.1267,3030.75
3362.6267,3031.92
3363.1267,3032.2
3363.6267,3031.7
3364.1267,3030.54
3364.6267,3028.88
3365.1267,3027.04
3365.6267,3025.41
3366.1267,3024.35
3366.6267,3023.99
3367.1267,3024.05
3367.6267,3024.19
3368.1267,3024.12
3368.6267,3023.75
3369.1267,3023.2
3369.6267,3022.59
3370.1267,3021.98
3370.6267,3021.15
3371.1267,3019.79
3371.6267,3017.56
3372.1267,3014.5
3372.6267,3011.61
3373.1267,3010.08
3373.6267,3011.04
3374.1267,3014.15
3374.6267,3017.14
3375.1267,3017.6
3375.6267,3013.43
3376.1267,3005.76
3376.6267,2997.84
3377.1267,2992.91
3377.6267,2993.38
3378.1267,2997.64
3378.6267,3002.9
3379.1267,3006.39
3379.6267,3006.57
3380.1267,3004.4
3380.6267,3001.19
3381.1267,2998.19
3381.6267,2996.11
3382.1267,2995.06
3382.6267,2995.13
3383.1267,2996.32
3383.6267,2998.05
3384.1267,2999.42
3384.6267,2999.56
3385.1267,2997.92
3385.6267,2995.22
3386.1267,2992.38
3386.6267,2990.35
3387.1267,2989.5
3387.6267,2989.35
3388.1267,2989.36
3388.6267,2989.03
3389.1267,2988.27
3389.6267,2987.33
3390.1267,2986.47
3390.6267,2985.88
3391.1267,2985.48
3391.6267,2985.1
3392.1267,2984.58
3392.6267,2983.89
3393.1267,2983.31
3393.6267,2983.18
3394.1267,2983.8
3394.6267,2984.86
3395.1267,2985.37
3395.6267,2984.3
3396.1267,2980.84
3396.6267,2975.81
3397.1267,2970.91
3397.6267,2967.82
3398.1267,2967.67
3398.6267,2969.65
3399.1267,2972.56
3399.6267,2975.17
3400.1267,2976.78
3400.6267,2977.45
3401.1267,2977.33
3401.6267,2976.54
3402.1267,2975.31
3402.6267,2973.9
3403.1267,2972.6
3403.6267,2971.61
3404.1267,2970.85
3404.6267,2970.15
3405.1267,2969.31
3405.6267,2968.24
3406.1267,2967.02
3406.6267,2965.74
3407.1267,2964.5
3407.6267,2963.42
3408.1267,2962.62
3408.6267,2962.22
3409.1267,2962.32
3409.6267,2962.78
3410.1267,2963.36
3410.6267,2963.83
3411.1267,2963.95
3411.6267,2963.53
3412.1267,2962.37
3412.6267,2960.31
3413.1267,2957.61
3413.6267,2955.14
3414.1267,2953.82
3414.6267,2954.47
3415.1267,2956.52
3415.6267,2958.55
3416.1267,2959.12
3416.6267,2957.26
3417.1267,2954.12
3417.6267,2951.41
3418.1267,2950.85
3418.6267,2953
3419.1267,2956.27
3419.6267,2958.85
3420.1267,2959.03
3420.6267,2956.79
3421.1267,2953.57
3421.6267,2950.85
3422.1267,2949.87
3422.6267,2950.37
3423.1267,2951.56
3423.6267,2952.64
3424.1267,2953.03
3424.6267,2952.75
3425.1267,2951.88
3425.6267,2950.51
3426.1267,2948.77
3426.6267,2946.8
3427.1267,2944.77
3427.6267,2942.81
3428.1267,2941.04
3428.6267,2939.52
3429.1267,2938.33
3429.6267,2937.52
3430.1267,2937.09
3430.6267,2937
3431.1267,2937.21
3431.6267,2937.58
3432.1267,2937.78
3432.6267,2937.46
3433.1267,2936.34
3433.6267,2934.62
3434.1267,2932.8
3434.6267,2931.41
3435.1267,2930.81
3435.6267,2930.7
3436.1267,2930.65
3436.6267,2930.2
3437.1267,2929.18
3437.6267,2927.9
3438.1267,2926.68
3438.6267,2925.88
3439.1267,2925.67
3439.6267,2926.11
3440.1267,2927.26
3440.6267,2929.03
3441.1267,2930.51
3441.6267,2930.53
3442.1267,2927.94
3442.6267,2922.62
3443.1267,2916.63
3443.6267,2912.3
3444.1267,2911.84
3444.6267,2915.05
3445.1267,2919.49
3445.6267,2922.68
3446.1267,2922.54
3446.6267,2919.8
3447.1267,2916.29
3447.6267,2913.86
3448.1267,2913.62
3448.6267,2914.94
3449.1267,2916.91
3449.6267,2918.63
3450.1267,2919.63
3450.6267,2919.88
3451.1267,2919.4
3451.6267,2918.2
3452.1267,2916.55
3452.6267,2914.82
3453.1267,2913.37
3453.6267,2912.48
3454.1267,2912.15
3454.6267,2912.35
3455.1267,2913.05
3455.6267,2913.96
3456.1267,2914.58
3456.6267,2914.36
3457.1267,2912.85
3457.6267,2910.42
3458.1267,2907.87
3458.6267,2906.02
3459.1267,2905.41
3459.6267,2905.64
3460.1267,2906.12
3460.6267,2906.3
3461.1267,2905.98
3461.6267,2905.52
3462.1267,2905.34
3462.6267,2905.77
3463.1267,2906.56
3463.6267,2907.1
3464.1267,2906.78
3464.6267,2905.25
3465.1267,2903.13
3465.6267,2901.27
3466.1267,2900.5
3466.6267,2901
3467.1267,2901.91
3467.6267,2902.33
3468.1267,2901.42
3468.6267,2899.32
3469.1267,2896.82
3469.6267,2894.71
3470.1267,2893.57
3470.6267,2893.22
3471.1267,2893.3
3471.6267,2893.42
3472.1267,2893.4
3472.6267,2893.29
3473.1267,2893.21
3473.6267,2893.23
3474.1267,2893.33
3474.6267,2893.37
3475.1267,2893.21
3475.6267,2892.74
3476.1267,2891.91
3476.6267,2890.69
3477.1267,2889.06
3477.6267,2887.16
3478.1267,2885.5
3478.6267,2884.56
3479.1267,2884.8
3479.6267,2885.9
3480.1267,2886.97
3480.6267,2887.12
3481.1267,2885.74
3481.6267,2883.44
3482.1267,2881.12
3482.6267,2879.73
3483.1267,2879.56
3483.6267,2879.82
3484.1267,2879.65
3484.6267,2878.25
3485.1267,2876.01
3485.6267,2874.17
3486.1267,2873.96
3486.6267,2876.21
3487.1267,2879.74
3487.6267,2882.87
3488.1267,2883.9
3488.6267,2882.2
3489.1267,2878.94
3489.6267,2875.46
3490.1267,2873.03
3490.6267,2871.95
3491.1267,2871.86
3491.6267,2872.38
3492.1267,2873.13
3492.6267,2873.73
3493.1267,2873.78
3493.6267,2872.91
3494.1267,2871.02
3494.6267,2868.52
3495.1267,2865.88
3495.6267,2863.53
3496.1267,2861.65
3496.6267,2860.24
3497.1267,2859.31
3497.6267,2858.81
3498.1267,2858.54
3498.6267,2858.24
3499.1267,2857.67
3499.6267,2856.78
3500.1267,2855.88
3500.6267,2855.28
3501.1267,2855.26
3501.6267,2855.7
3502.1267,2856.18
3502.6267,2856.3
3503.1267,2855.77
3503.6267,2854.8
3504.1267,2853.71
3504.6267,2852.82
3505.1267,2852.26
3505.6267,2851.86
3506.1267,2851.45
3506.6267,2850.87
3507.1267,2850.12
3507.6267,2849.32
3508.1267,2848.57
3508.6267,2847.94
3509.1267,2847.39
3509.6267,2846.85
3510.1267,2846.25
3510.6267,2845.6
3511.1267,2844.98
3511.6267,2844.49
3512.1267,2844.21
3512.6267,2843.95
3513.1267,2843.41
3513.6267,2842.27
3514.1267,2840.46
3514.6267,2838.69
3515.1267,2837.8
3515.6267,2838.6
3516.1267,2840.82
3516.6267,2842.92
3517.1267,2843.3
3517.6267,2840.61
3518.1267,2835.8
3518.6267,2830.82
3519.1267,2827.63
3519.6267,2827.41
3520.1267,2829.17
3520.6267,2831.62
3521.1267,2833.47
3521.6267,2834.22
3522.1267,2834.15
3522.6267,2833.61
3523.1267,2832.86
3523.6267,2831.97
3524.1267,2830.91
3524.6267,2829.63
3525.1267,2828.15
3525.6267,2826.65
3526.1267,2825.3
3526.6267,2824.27
3527.1267,2823.51
3527.6267,2822.74
3528.1267,2821.71
3528.6267,2820.23
3529.1267,2818.48
3529.6267,2816.76
3530.1267,2815.38
3530.6267,2814.49
3531.1267,2813.99
3531.6267,2813.75
3532.1267,2813.64
3532.6267,2813.55
3533.1267,2813.34
3533.6267,2812.91
3534.1267,2812.19
3534.6267,2811.39
3535.1267,2810.77
3535.6267,2810.61
3536.1267,2810.95
3536.6267,2811.52
3537.1267,2812.02
3537.6267,2812.14
3538.1267,2811.73
3538.6267,2810.73
3539.1267,2809.06
3539.6267,2806.78
3540.1267,2804.35
3540.6267,2802.34
3541.1267,2801.29
3541.6267,2801.22
3542.1267,2801.53
3542.6267,2801.58
3543.1267,2800.83
3543.6267,2799.5
3544.1267,2798.15
3544.6267,2797.33
3545.1267,2797.38
3545.6267,2798.12
3546.1267,2799.28
3546.6267,2800.59
3547.1267,2801.7
3547.6267,2802.19
3548.1267,2801.64
3548.6267,2799.76
3549.1267,2797.08
3549.6267,2794.36
3550.1267,2792.4
3550.6267,2791.61
3551.1267,2791.68
3551.6267,2792.24
3552.1267,2792.93
3552.6267,2793.53
3553.1267,2793.93
3553.6267,2794
3554.1267,2793.69
3554.6267,2793.15
3555.1267,2792.58
3555.6267,2792.19
3556.1267,2791.96
3556.6267,2791.61
3557.1267,2790.82
3557.6267,2789.33
3558.1267,2787.45
3558.6267,2785.79
3559.1267,2784.97
3559.6267,2785.24
3560.1267,2785.87
3560.6267,2785.96
3561.1267,2784.64
3561.6267,2781.96
3562.1267,2778.96
3562.6267,2776.7
3563.1267,2776.03
3563.6267,2776.51
3564.1267,2777.2
3564.6267,2777.18
3565.1267,2776.06
3565.6267,2774.55
3566.1267,2773.5
3566.6267,2773.68
3567.1267,2774.84
3567.6267,2775.93
3568.1267,2775.91
3568.6267,2774.09
3569.1267,2771.23
3569.6267,2768.47
3570.1267,2766.94
3570.6267,2767.02
3571.1267,2767.99
3571.6267,2769.09
3572.1267,2769.61
3572.6267,2769.43
3573.1267,2768.71
3573.6267,2767.65
3574.1267,2766.43
3574.6267,2765.28
3575.1267,2764.44
3575.6267,2764.11
3576.1267,2764.2
3576.6267,2764.29
3577.1267,2763.98
3577.6267,2762.92
3578.1267,2761.36
3578.6267,2759.71
3579.1267,2758.4
3579.6267,2757.68
3580.1267,2757.55
3580.6267,2757.95
3581.1267,2758.81
3581.6267,2759.78
3582.1267,2760.34
3582.6267,2759.96
3583.1267,2758.37
3583.6267,2756.18
3584.1267,2754.21
3584.6267,2753.26
3585.1267,2753.49
3585.6267,2754.36
3586.1267,2755.28
3586.6267,2755.69
3587.1267,2755.46
3587.6267,2754.65
3588.1267,2753.28
3588.6267,2751.52
3589.1267,2749.78
3589.6267,2748.49
3590.1267,2748.07
3590.6267,2748.34
3591.1267,2748.69
3591.6267,2748.51
3592.1267,2747.38
3592.6267,2745.81
3593.1267,2744.52
3593.6267,2744.26
3594.1267,2745.17
3594.6267,2746.57
3595.1267,2747.74
3595.6267,2748.01
3596.1267,2747.24
3596.6267,2745.59
3597.1267,2743.18
3597.6267,2740.25
3598.1267,2737.29
3598.6267,2734.81
3599.1267,2733.33
3599.6267,2732.91
3600.1267,2733.28
3600.6267,2734.14
3601.1267,2735.24
3601.6267,2736.54
3602.1267,2738.06
3602.6267,2739.83
3603.1267,2741.61
3603.6267,2742.81
3604.1267,2742.79
3604.6267,2741.03
3605.1267,2738.01
3605.6267,2734.78
3606.1267,2732.36
3606.6267,2731.38
3607.1267,2731.33
3607.6267,2731.52
3608.1267,2731.29
3608.6267,2730.46
3609.1267,2729.29
3609.6267,2728.08
3610.1267,2727.06
3610.6267,2726.31
3611.1267,2725.84
3611.6267,2725.68
3612.1267,2725.68
3612.6267,2725.45
3613.1267,2724.59
3613.6267,2722.78
3614.1267,2720.51
3614.6267,2718.69
3615.1267,2718.25
3615.6267,2719.66
3616.1267,2722.18
3616.6267,2724.86
3617.1267,2726.8
3617.6267,2727.62
3618.1267,2727.47
3618.6267,2726.48
3619.1267,2724.85
3619.6267,2722.95
3620.1267,2721.18
3620.6267,2719.96
3621.1267,2719.41
3621.6267,2719.19
3622.1267,2718.92
3622.6267,2718.26
3623.1267,2717.18
3623.6267,2715.77
3624.1267,2714.13
3624.6267,2712.44
3625.1267,2711
3625.6267,2710.18
3626.1267,2710.28
3626.6267,2711.18
3627.1267,2712.35
3627.6267,2713.28
3628.1267,2713.57
3628.6267,2713.3
3629.1267,2712.71
3629.6267,2712.05
3630.1267,2711.43
3630.6267,2710.86
3631.1267,2710.31

##### Extended Information
[Comments]
Sample name,
Comment,
User
Division
Company,NASA

[Detailed Information]
Creation date,2/28/2020 2:32 PM

Data array type,Linear data array
Horizontal axis,Raman Shift [cm-1]
Vertical axis,Int.
Start,-0.373273 cm-1
End,3631.13 cm-1
Data interval,0.5 cm-1
Data points,7264    

[Measurement Information]
Model Name,NRS-5500
Serial Number,A001861986

Measurement Date,2/28/2020 2:31 PM

Exposure,10 sec
Accumulation,10
Center wavenumber,2029.26 cm-1
Z position,28242.2 um
Binning Upper,70
Binning Lower,129
Valid Channel,1 - 1600
Shift Speed,9.68 usecs
Amplitude,Normal
Readout Rate,3MHz at 16-bit
Pre-Amplifier Gain,1x
Mode,Electron Multiplying
CCD,DU970P_UV

Laser wavelength,532.20 nm
Monochromator,Single
Grating,L600/B500nm
Slit,10 x 1000 um
Aperture,d-4000 um
Rejection filter,532.0 nm
Resolution,1.40 cm-1, 2.27 cm-1/pixel
Objective lens,MPLFLN 100 x
BS/DM,BS 30/70
Laser power,0.6 mW
Attenuator,10%(OD1)
CCD temperature,-69.0 C
Shift,2.00 cm-1

